File: XRD-20251211/1-1_2-Theta_Omega.asc
*TYPE		=  Raw
*CLASS		=  ASCII CLASS
*SAMPLE		=
*COMMENT	=
*FNAME		=  1-1_2-Theta_Omega.asc
*DATE		=  11-Dec-25 14:53

*GROUP_COUNT	=  1
*GONIO		=  SmartLab(In-plane), 0.000000
*ATTACHMENT	=  Z-Phi Stage
*ASC		=  0, 0, 0.000000, 0.000000
*I_MONOCHRO	=  Soller_slit_5.0deg, 0.000000
*FILTER		=  None
*C_MONOCHRO	=  None, 0.000000
*SLIT_NAME	=  0, Incident slit
*SLIT_NAME	=  1, Receiving slit # 1
*SLIT_NAME	=  2, Receiving slit # 2
*COUNTER	=  SC-70, 0
*POS_FORMAT	=  0
*SCAN_AXIS	=  2Theta/Omega
*MEAS_MODE	=  Continuous Scanning
*TARGET		=  29
*XRAY_CHAR	=  K-ALPHA
*WAVE_LENGTH1	=  1.54059
*WAVE_LENGTH2	=  1.54441
*THICKNESS	=  0, 0.000000
*MU		=  0, 0.000000
*SCAN_MODE	=  2Theta/Omega
*SPEED_DIM	=  sec./step
*XUNIT		=  deg.
*YUNIT		=  counts
*SCALE_MODE	=  1
*REP_COUNT	=  0
*SE_COUNT	=  0
*STD_MATERIAL	=  Unknown, Unknown, 0.000000, 0.000000, 0.000000, 0.000000, 0.000000, 0.000000
*LATT_CONS	=  0, Unknown, Unknown, 0.000000, 0.000000, 0.000000, 0.000000, 0.000000, 0.000000
*SEC_COUNT	=  1
*TSPEC_SIZE	=  0
*EXTRA_SIZE	=  0
*MEMO		=

*BEGIN
*GROUP		=  0
*START		=  20
*STOP		=  80
*STEP		=  0.01
*OFFSET		=  0.000000
*SPEED		=  0.05
*SLIT_SPEC	=  0, 1.000mm, 1, 0.000000
*SLIT_SPEC	=  1, 1.000mm, 1, 0.000000
*SLIT_SPEC	=  2, 1.000mm, 1, 0.000000
*KV		=  40
*MA		=  100
*LOW		=  0.000000
*HIGH		=  0.000000
*CTEMPER	=  0, 0.000000
*CTEMPER	=  1, 0.000000
*CTEMPER	=  2, 0.000000
*PAREX		=  0, 0.000000
*PAREX		=  1, 0.000000
*PAREX		=  2, 0.000000
*PAREX		=  3, 0.000000
*PAREX		=  4, 0.000000
*PAREX		=  5, 0.000000
*PAREX		=  6, 0.000000
*PAREX		=  7, 0.000000
*PAREX		=  8, 0.000000
*PAREX		=  9, 0.000000
*PAREX		=  10, 0.000000
*PAREX		=  11, 0.000000
*PAREX		=  12, 0.000000
*PAREX		=  13, 0.000000
*PAREX		=  14, 0.000000
*PAREX		=  15, 0.000000
*FULL_SCALE	=  436968
*INDEX		=  0, 0, 0
*COUNT		=  6001
103, 99, 99, 105
102, 103, 99, 100
92, 99, 109, 111
116, 101, 124, 107
101, 102, 97, 126
105, 86, 101, 94
113, 109, 102, 81
91, 91, 130, 105
120, 93, 95, 98
96, 102, 107, 91
102, 100, 97, 112
82, 102, 107, 91
88, 119, 102, 94
91, 95, 102, 87
96, 99, 98, 111
101, 105, 104, 94
101, 94, 120, 87
114, 125, 112, 109
107, 112, 95, 102
124, 104, 108, 112
123, 104, 109, 100
97, 103, 105, 108
119, 97, 112, 125
118, 120, 113, 109
105, 116, 136, 131
98, 117, 114, 116
99, 121, 105, 107
108, 102, 116, 126
114, 117, 112, 103
114, 114, 96, 100
105, 131, 93, 94
105, 123, 104, 103
103, 112, 89, 117
102, 125, 86, 116
103, 96, 95, 105
121, 96, 97, 102
117, 106, 98, 121
101, 105, 108, 112
97, 111, 116, 101
109, 97, 97, 109
109, 104, 105, 115
105, 99, 117, 127
115, 110, 88, 105
104, 104, 123, 92
92, 98, 116, 111
112, 93, 110, 107
107, 135, 98, 113
123, 107, 108, 128
110, 112, 130, 110
139, 97, 111, 112
124, 119, 98, 112
106, 110, 102, 111
106, 119, 130, 117
124, 109, 132, 116
137, 130, 159, 129
137, 140, 156, 98
148, 150, 159, 147
144, 160, 145, 174
210, 201, 187, 190
280, 304, 282, 315
870, 892, 929, 1051
2331, 2336, 2302, 2270
1390, 1307, 1204, 1256
802, 744, 742, 767
602, 583, 537, 523
346, 337, 347, 326
238, 210, 200, 202
164, 171, 179, 171
144, 142, 145, 143
119, 142, 142, 121
144, 133, 138, 137
123, 116, 121, 123
128, 111, 107, 110
118, 123, 117, 126
113, 121, 110, 109
98, 98, 141, 113
106, 117, 123, 121
98, 94, 136, 115
120, 129, 98, 111
126, 99, 118, 118
130, 137, 119, 137
205, 186, 180, 198
142, 146, 135, 136
114, 135, 121, 132
135, 150, 137, 121
131, 122, 127, 126
140, 131, 115, 124
115, 134, 124, 125
135, 130, 131, 137
142, 147, 148, 157
270, 299, 354, 344
280, 288, 287, 313
206, 224, 219, 218
218, 212, 195, 217
219, 205, 223, 212
226, 188, 205, 204
236, 232, 237, 231
279, 281, 291, 334
560, 551, 580, 677
9844, 10608, 11501, 12503
11856, 11028, 10098, 9149
727, 714, 677, 676
334, 373, 322, 358
191, 202, 217, 175
162, 182, 163, 179
145, 141, 134, 155
128, 156, 147, 148
145, 152, 153, 138
122, 129, 144, 125
137, 138, 136, 123
147, 139, 118, 127
140, 115, 139, 145
134, 145, 143, 140
115, 139, 142, 133
133, 135, 140, 124
136, 136, 138, 129
122, 114, 125, 134
138, 121, 119, 117
134, 129, 137, 117
132, 131, 120, 117
125, 151, 134, 130
123, 145, 131, 122
138, 123, 111, 140
128, 109, 129, 142
139, 130, 133, 134
118, 125, 146, 134
135, 134, 117, 110
124, 141, 126, 122
115, 129, 117, 126
128, 143, 136, 109
128, 142, 121, 117
134, 139, 113, 122
119, 130, 118, 143
148, 135, 128, 128
116, 127, 139, 121
148, 121, 122, 131
148, 131, 134, 130
116, 137, 139, 146
142, 131, 119, 147
128, 130, 131, 142
121, 117, 115, 129
120, 116, 141, 129
130, 117, 128, 131
137, 141, 133, 123
129, 133, 113, 131
111, 126, 128, 120
118, 133, 129, 127
140, 134, 143, 123
120, 145, 127, 121
134, 119, 121, 141
152, 136, 139, 148
115, 134, 130, 135
128, 131, 129, 131
137, 143, 136, 132
147, 129, 149, 132
120, 136, 144, 131
129, 140, 138, 137
125, 146, 119, 150
146, 138, 133, 116
126, 129, 139, 131
139, 146, 159, 132
123, 111, 131, 130
128, 140, 134, 146
132, 129, 136, 134
129, 144, 134, 147
134, 126, 154, 139
131, 122, 127, 130
174, 146, 125, 129
138, 137, 142, 145
145, 158, 154, 136
139, 151, 125, 142
136, 127, 143, 125
124, 139, 149, 124
131, 140, 127, 129
141, 143, 129, 164
133, 139, 149, 138
126, 138, 133, 144
131, 140, 120, 123
130, 121, 132, 136
137, 154, 133, 119
138, 141, 137, 123
137, 151, 152, 135
149, 144, 151, 138
139, 118, 143, 138
146, 154, 139, 130
158, 183, 172, 158
181, 150, 151, 145
160, 148, 153, 147
140, 117, 135, 140
126, 142, 143, 129
144, 150, 134, 135
147, 157, 172, 133
131, 150, 134, 133
128, 138, 153, 159
135, 165, 144, 145
128, 123, 135, 158
157, 136, 146, 148
155, 146, 142, 148
150, 153, 124, 143
138, 135, 144, 139
126, 156, 153, 152
142, 157, 160, 150
148, 127, 131, 136
154, 147, 156, 149
130, 157, 138, 146
118, 150, 159, 161
141, 149, 150, 132
131, 143, 135, 132
152, 142, 156, 145
147, 150, 151, 139
142, 139, 133, 156
142, 127, 153, 157
157, 152, 161, 143
148, 161, 133, 159
160, 156, 151, 149
157, 162, 178, 160
133, 174, 156, 147
149, 158, 147, 150
192, 150, 155, 137
170, 154, 167, 156
180, 166, 180, 172
216, 226, 200, 225
185, 196, 192, 181
156, 176, 200, 188
174, 179, 187, 168
147, 157, 175, 169
183, 161, 165, 188
164, 161, 170, 189
202, 199, 210, 199
318, 274, 342, 365
1148, 1143, 1144, 1142
951, 912, 893, 867
311, 318, 313, 318
189, 202, 221, 171
184, 150, 151, 165
131, 165, 167, 151
157, 146, 148, 168
167, 177, 160, 166
164, 147, 161, 159
170, 158, 149, 147
139, 160, 162, 152
119, 165, 163, 161
166, 151, 156, 145
126, 150, 143, 154
152, 162, 149, 181
141, 167, 146, 136
171, 146, 142, 150
163, 179, 148, 138
161, 146, 145, 144
161, 160, 166, 153
185
*END

*EOF