File: XRD-20251211/1-2_2-Theta_Omega.asc
*TYPE		=  Raw
*CLASS		=  ASCII CLASS
*SAMPLE		=
*COMMENT	=
*FNAME		=  1-2_2-Theta_Omega.asc
*DATE		=  11-Dec-25 15:02

*GROUP_COUNT	=  1
*GONIO		=  SmartLab(In-plane), 0.000000
*ATTACHMENT	=  Z-Phi Stage
*ASC		=  0, 0, 0.000000, 0.000000
*I_MONOCHRO	=  Soller_slit_5.0deg, 0.000000
*FILTER		=  None
*C_MONOCHRO	=  None, 0.000000
*SLIT_NAME	=  0, Incident slit
*SLIT_NAME	=  1, Receiving slit # 1
*SLIT_NAME	=  2, Receiving slit # 2
*COUNTER	=  SC-70, 0
*POS_FORMAT	=  0
*SCAN_AXIS	=  2Theta/Omega
*MEAS_MODE	=  Continuous Scanning
*TARGET		=  29
*XRAY_CHAR	=  K-ALPHA
*WAVE_LENGTH1	=  1.54059
*WAVE_LENGTH2	=  1.54441
*THICKNESS	=  0, 0.000000
*MU		=  0, 0.000000
*SCAN_MODE	=  2Theta/Omega
*SPEED_DIM	=  sec./step
*XUNIT		=  deg.
*YUNIT		=  counts
*SCALE_MODE	=  1
*REP_COUNT	=  0
*SE_COUNT	=  0
*STD_MATERIAL	=  Unknown, Unknown, 0.000000, 0.000000, 0.000000, 0.000000, 0.000000, 0.000000
*LATT_CONS	=  0, Unknown, Unknown, 0.000000, 0.000000, 0.000000, 0.000000, 0.000000, 0.000000
*SEC_COUNT	=  1
*TSPEC_SIZE	=  0
*EXTRA_SIZE	=  0
*MEMO		=

*BEGIN
*GROUP		=  0
*START		=  20
*STOP		=  80
*STEP		=  0.01
*OFFSET		=  0.000000
*SPEED		=  0.05
*SLIT_SPEC	=  0, 1.000mm, 1, 0.000000
*SLIT_SPEC	=  1, 1.000mm, 1, 0.000000
*SLIT_SPEC	=  2, 1.000mm, 1, 0.000000
*KV		=  40
*MA		=  100
*LOW		=  0.000000
*HIGH		=  0.000000
*CTEMPER	=  0, 0.000000
*CTEMPER	=  1, 0.000000
*CTEMPER	=  2, 0.000000
*PAREX		=  0, 0.000000
*PAREX		=  1, 0.000000
*PAREX		=  2, 0.000000
*PAREX		=  3, 0.000000
*PAREX		=  4, 0.000000
*PAREX		=  5, 0.000000
*PAREX		=  6, 0.000000
*PAREX		=  7, 0.000000
*PAREX		=  8, 0.000000
*PAREX		=  9, 0.000000
*PAREX		=  10, 0.000000
*PAREX		=  11, 0.000000
*PAREX		=  12, 0.000000
*PAREX		=  13, 0.000000
*PAREX		=  14, 0.000000
*PAREX		=  15, 0.000000
*FULL_SCALE	=  19513530
*INDEX		=  0, 0, 0
*COUNT		=  6001
88, 91, 97, 79
102, 82, 105, 82
99, 92, 108, 125
110, 91, 95, 72
79, 86, 79, 77
96, 80, 91, 104
89, 82, 84, 91
88, 86, 81, 70
77, 97, 89, 96
102, 101, 70, 83
91, 100, 82, 102
85, 76, 90, 101
79, 85, 90, 89
81, 82, 79, 94
97, 73, 90, 103
88, 96, 92, 95
98, 74, 87, 76
87, 93, 104, 63
94, 95, 90, 83
86, 82, 70, 87
99, 81, 99, 91
88, 90, 103, 85
109, 94, 82, 86
86, 80, 95, 89
94, 94, 88, 80
82, 83, 79, 87
82, 99, 93, 83
86, 81, 98, 85
98, 85, 89, 91
83, 113, 99, 98
83, 90, 105, 98
75, 94, 95, 91
91, 100, 92, 102
84, 90, 99, 80
96, 103, 104, 101
88, 93, 103, 108
122, 122, 125, 121
97, 101, 99, 86
81, 116, 108, 113
104, 97, 88, 109
94, 104, 91, 96
85, 106, 96, 106
83, 101, 90, 81
102, 103, 95, 101
93, 130, 94, 98
107, 101, 141, 123
344, 365, 465, 590
1525, 1291, 1136, 920
242, 220, 214, 210
222, 247, 201, 210
241, 229, 245, 233
273, 265, 323, 277
357, 331, 392, 333
529, 503, 523, 536
1221, 1321, 1597, 1817
3747, 3280, 3034, 2795
2249, 2035, 2023, 2030
2096, 2082, 2076, 2107
2586, 2697, 2594, 2646
3508, 3356, 3516, 3616
11421, 13012, 15407, 17936
813064, 781965, 748577, 715050
17604.2, 14942.6, 11673.9, 10518
2776, 2658, 2499, 2542
1387, 1359, 1324, 1325
896, 912, 852, 908
574, 617, 582, 567
394, 380, 356, 324
220, 254, 230, 216
191, 182, 187, 173
166, 153, 157, 155
130, 140, 126, 115
123, 154, 136, 160
233, 267, 303, 332
122, 122, 120, 108
113, 108, 127, 133
118, 129, 136, 102
117, 121, 114, 97
92, 112, 101, 113
143, 98, 111, 108
119, 122, 118, 106
111, 130, 125, 117
158, 179, 169, 134
365, 391, 330, 307
161, 179, 185, 199
148, 138, 165, 165
168, 194, 177, 182
180, 205, 171, 179
214, 207, 212, 231
230, 274, 236, 262
928, 967, 1059, 1215
19005.1, 20125.8, 22554, 21339.9
356, 333, 354, 298
196, 191, 197, 212
163, 171, 147, 144
157, 149, 131, 137
136, 155, 146, 136
154, 144, 153, 129
152, 159, 170, 168
269, 264, 282, 340
3581, 3722, 3999, 4208
3009, 2589, 2554, 2236
235, 256, 216, 187
119, 131, 139, 126
120, 102, 116, 125
96, 125, 115, 119
110, 124, 104, 112
115, 123, 107, 113
103, 107, 122, 107
105, 122, 100, 100
120, 107, 104, 109
107, 109, 107, 114
110, 111, 93, 95
126, 89, 108, 103
104, 86, 117, 126
88, 108, 94, 115
101, 106, 106, 112
91, 90, 109, 122
115, 101, 96, 117
117, 127, 97, 96
117, 107, 118, 102
112, 104, 105, 89
104, 117, 98, 114
117, 92, 100, 103
112, 96, 91, 86
108, 112, 100, 95
111, 112, 107, 117
92, 88, 107, 107
96, 90, 114, 105
100, 112, 115, 105
119, 111, 109, 104
94, 110, 115, 113
97, 95, 95, 117
121, 107, 105, 109
119, 99, 96, 84
109, 108, 93, 97
115, 105, 102, 100
125, 142, 143, 139
134, 123, 119, 137
98, 101, 113, 99
115, 87, 89, 111
139, 94, 111, 119
106, 132, 98, 113
99, 109, 108, 119
97, 104, 91, 102
118, 111, 117, 99
107, 101, 96, 118
98, 111, 108, 110
111, 114, 98, 101
89, 95, 101, 109
97, 117, 101, 89
114, 123, 111, 114
121, 93, 103, 98
94, 112, 101, 98
98, 80, 93, 109
112, 97, 108, 107
92, 108, 121, 97
108, 105, 103, 124
119, 103, 108, 107
125, 96, 100, 108
96, 120, 112, 86
106, 91, 109, 109
106, 114, 114, 119
120, 98, 97, 101
111, 106, 115, 112
109, 119, 111, 103
102, 116, 103, 99
108, 109, 105, 111
108, 112, 107, 124
124, 88, 120, 117
110, 124, 109, 102
93, 93, 112, 87
107, 99, 101, 108
105, 94, 104, 124
120, 101, 88, 118
105, 107, 94, 113
106, 112, 81, 101
99, 103, 97, 110
112, 101, 97, 99
99, 112, 98, 99
111, 95, 107, 110
133, 96, 104, 111
106, 118, 100, 109
106, 109, 99, 97
127, 105, 102, 113
118, 145, 135, 121
139, 137, 134, 152
276, 288, 333, 398
199, 225, 230, 148
124, 135, 143, 116
109, 111, 131, 122
114, 104, 124, 126
121, 125, 108, 137
121, 120, 127, 121
122, 140, 112, 112
129, 112, 122, 109
119, 123, 126, 109
110, 135, 129, 128
141, 120, 114, 115
103, 118, 120, 130
127, 115, 143, 116
137, 124, 139, 135
147, 135, 131, 134
143, 148, 158, 141
177, 147, 151, 151
203, 209, 242, 263
1216, 1130, 1131, 1118
277, 253, 245, 255
320, 281, 306, 330
286, 292, 341, 285
243, 219, 254, 297
279, 278, 284, 263
310, 306, 290, 336
318, 298, 306, 317
358, 352, 356, 384
361, 392, 386, 407
398, 435, 448, 430
509, 495, 488, 493
692, 679, 734, 721
2099, 2298, 2294, 2397
14796, 19027, 23301.1, 29698.4
60844.4, 54447.1, 49123.8, 46322
14895.9, 11477, 9096, 7515
1114, 1090, 1054, 979
574, 587, 557, 572
410, 411, 422, 409
361, 283, 335, 346
270, 272, 277, 287
235, 247, 246, 241
237, 246, 224, 244
347, 339, 369, 385
1695, 1822, 1903, 1980
946, 971, 1001, 981
226, 197, 171, 172
168, 149, 138, 131
122, 131, 123, 146
128, 127, 140, 130
137, 130, 140, 122
119, 128, 137, 129
122, 134, 128, 114
133, 149, 122, 131
123, 122, 130, 146
102, 129, 130, 117
107, 119, 123, 111
109, 105, 132, 137
104, 102, 116, 126
99, 102, 120, 138
116, 128, 133, 139
137, 126, 110, 125
128, 116, 119, 102
260
*END

*EOF