File: XRD-20251211/1-3_2-Theta_Omega.asc
*TYPE		=  Raw
*CLASS		=  ASCII CLASS
*SAMPLE		=
*COMMENT	=
*FNAME		=  1-3_2-Theta_Omega.asc
*DATE		=  11-Dec-25 15:12

*GROUP_COUNT	=  1
*GONIO		=  SmartLab(In-plane), 0.000000
*ATTACHMENT	=  Z-Phi Stage
*ASC		=  0, 0, 0.000000, 0.000000
*I_MONOCHRO	=  Soller_slit_5.0deg, 0.000000
*FILTER		=  None
*C_MONOCHRO	=  None, 0.000000
*SLIT_NAME	=  0, Incident slit
*SLIT_NAME	=  1, Receiving slit # 1
*SLIT_NAME	=  2, Receiving slit # 2
*COUNTER	=  SC-70, 0
*POS_FORMAT	=  0
*SCAN_AXIS	=  2Theta/Omega
*MEAS_MODE	=  Continuous Scanning
*TARGET		=  29
*XRAY_CHAR	=  K-ALPHA
*WAVE_LENGTH1	=  1.54059
*WAVE_LENGTH2	=  1.54441
*THICKNESS	=  0, 0.000000
*MU		=  0, 0.000000
*SCAN_MODE	=  2Theta/Omega
*SPEED_DIM	=  sec./step
*XUNIT		=  deg.
*YUNIT		=  counts
*SCALE_MODE	=  1
*REP_COUNT	=  0
*SE_COUNT	=  0
*STD_MATERIAL	=  Unknown, Unknown, 0.000000, 0.000000, 0.000000, 0.000000, 0.000000, 0.000000
*LATT_CONS	=  0, Unknown, Unknown, 0.000000, 0.000000, 0.000000, 0.000000, 0.000000, 0.000000
*SEC_COUNT	=  1
*TSPEC_SIZE	=  0
*EXTRA_SIZE	=  0
*MEMO		=

*BEGIN
*GROUP		=  0
*START		=  20
*STOP		=  80
*STEP		=  0.01
*OFFSET		=  0.000000
*SPEED		=  0.05
*SLIT_SPEC	=  0, 1.000mm, 1, 0.000000
*SLIT_SPEC	=  1, 1.000mm, 1, 0.000000
*SLIT_SPEC	=  2, 1.000mm, 1, 0.000000
*KV		=  40
*MA		=  100
*LOW		=  0.000000
*HIGH		=  0.000000
*CTEMPER	=  0, 0.000000
*CTEMPER	=  1, 0.000000
*CTEMPER	=  2, 0.000000
*PAREX		=  0, 0.000000
*PAREX		=  1, 0.000000
*PAREX		=  2, 0.000000
*PAREX		=  3, 0.000000
*PAREX		=  4, 0.000000
*PAREX		=  5, 0.000000
*PAREX		=  6, 0.000000
*PAREX		=  7, 0.000000
*PAREX		=  8, 0.000000
*PAREX		=  9, 0.000000
*PAREX		=  10, 0.000000
*PAREX		=  11, 0.000000
*PAREX		=  12, 0.000000
*PAREX		=  13, 0.000000
*PAREX		=  14, 0.000000
*PAREX		=  15, 0.000000
*FULL_SCALE	=  109728
*INDEX		=  0, 0, 0
*COUNT		=  6001
88, 71, 98, 71
81, 83, 80, 79
88, 82, 86, 101
73, 72, 89, 75
61, 98, 72, 86
102, 97, 85, 99
101, 82, 82, 94
95, 85, 83, 86
100, 98, 84, 97
97, 89, 79, 89
74, 88, 97, 89
82, 89, 78, 85
77, 93, 99, 86
97, 89, 100, 90
83, 99, 102, 82
106, 83, 81, 64
94, 85, 79, 87
88, 71, 93, 84
90, 85, 109, 104
84, 97, 93, 103
85, 92, 84, 92
94, 85, 91, 102
100, 79, 83, 96
82, 93, 94, 84
99, 105, 83, 101
99, 64, 79, 88
81, 93, 99, 104
97, 83, 106, 94
93, 93, 104, 94
87, 93, 89, 80
103, 95, 87, 93
103, 115, 81, 91
87, 91, 74, 81
88, 102, 106, 103
76, 80, 81, 93
103, 87, 96, 83
77, 88, 79, 87
90, 92, 95, 84
81, 85, 86, 86
98, 112, 89, 78
99, 89, 83, 87
123, 89, 84, 77
93, 81, 108, 84
99, 107, 90, 80
80, 105, 102, 104
97, 94, 113, 86
110, 97, 105, 111
96, 96, 92, 105
90, 103, 78, 96
97, 92, 84, 101
91, 89, 110, 94
90, 104, 100, 107
91, 111, 95, 106
103, 100, 106, 97
100, 74, 85, 91
102, 106, 98, 97
87, 97, 82, 95
76, 84, 102, 95
88, 95, 92, 94
96, 91, 115, 105
98, 99, 79, 77
105, 101, 112, 92
108, 98, 94, 88
109, 93, 87, 86
94, 95, 109, 96
108, 98, 92, 105
94, 100, 114, 92
103, 98, 93, 114
100, 101, 105, 100
112, 104, 99, 106
112, 117, 108, 97
92, 107, 91, 92
86, 110, 104, 100
93, 103, 100, 90
104, 93, 97, 108
90, 107, 102, 95
106, 90, 112, 105
105, 101, 97, 115
114, 115, 96, 100
95, 99, 103, 92
104, 82, 108, 115
98, 99, 110, 111
122, 115, 127, 103
111, 108, 109, 99
112, 93, 100, 100
103, 92, 102, 112
99, 89, 116, 97
108, 103, 96, 98
113, 89, 102, 113
106, 102, 119, 104
111, 91, 122, 99
103, 118, 128, 128
130, 115, 139, 149
129, 115, 122, 143
123, 97, 121, 121
104, 129, 123, 129
136, 131, 139, 128
142, 124, 117, 147
158, 148, 173, 160
291, 305, 344, 404
2922, 3114, 3284, 3358
2779, 2567, 2428, 2309
334, 310, 278, 266
145, 148, 154, 127
146, 120, 123, 113
114, 125, 128, 133
118, 123, 119, 103
116, 104, 102, 100
113, 121, 118, 103
88, 122, 109, 110
99, 107, 116, 106
97, 102, 134, 112
88, 103, 97, 95
109, 87, 104, 107
106, 109, 97, 93
106, 85, 118, 95
111, 93, 114, 109
120, 84, 106, 119
104, 99, 89, 95
114, 101, 110, 108
100, 125, 114, 102
120, 116, 103, 112
92, 114, 102, 94
97, 93, 117, 99
96, 116, 95, 119
120, 115, 120, 123
111, 109, 109, 114
110, 107, 115, 101
115, 94, 104, 94
102, 109, 95, 120
100, 103, 115, 112
93, 116, 114, 103
108, 107, 117, 112
118, 115, 103, 106
132, 114, 114, 121
98, 115, 107, 95
110, 120, 109, 94
104, 114, 108, 111
108, 110, 128, 114
104, 117, 123, 98
107, 108, 112, 119
101, 96, 122, 100
100, 98, 108, 124
101, 127, 99, 112
133, 101, 124, 120
95, 93, 109, 118
109, 107, 101, 127
110, 119, 98, 117
104, 105, 108, 98
115, 104, 100, 117
121, 103, 121, 125
110, 110, 111, 108
137, 103, 109, 112
113, 129, 123, 100
114, 111, 100, 109
105, 108, 109, 99
90, 112, 108, 104
109, 112, 93, 127
108, 89, 114, 120
117, 93, 112, 107
129, 105, 116, 121
114, 117, 113, 113
99, 100, 113, 119
98, 104, 122, 93
128, 109, 140, 118
105, 83, 108, 119
113, 121, 105, 110
138, 100, 105, 123
109, 135, 128, 109
108, 107, 107, 123
101, 106, 102, 94
107, 96, 105, 113
116, 96, 109, 92
116, 92, 112, 130
113, 104, 119, 105
118, 109, 122, 116
113, 102, 119, 119
107, 128, 120, 132
109, 96, 119, 104
109, 128, 126, 112
98, 110, 107, 107
121, 128, 108, 103
131, 119, 112, 101
131, 106, 97, 121
114, 124, 113, 132
134, 128, 131, 124
133, 140, 119, 121
117, 118, 115, 114
115, 113, 114, 95
112, 110, 106, 112
147, 131, 112, 95
115, 118, 126, 111
87, 102, 112, 116
114, 115, 130, 132
140, 127, 116, 110
123, 109, 102, 103
112, 120, 135, 114
136, 129, 120, 119
103, 111, 106, 135
106, 124, 124, 116
103, 124, 105, 108
130, 118, 96, 123
117, 140, 109, 91
107, 105, 132, 100
112, 103, 140, 128
110, 132, 116, 118
93, 117, 113, 104
125, 108, 129, 108
120, 117, 131, 123
135, 123, 116, 98
117, 110, 114, 120
114, 120, 111, 125
117, 108, 113, 110
116, 126, 95, 99
132, 125, 122, 133
110, 161, 120, 143
180, 178, 137, 132
133, 128, 125, 114
151, 126, 128, 120
147, 136, 142, 123
137, 147, 135, 124
147, 124, 143, 135
127, 133, 126, 131
154, 125, 151, 149
127, 119, 146, 129
114, 134, 151, 161
153, 123, 139, 153
123, 127, 140, 138
160, 169, 174, 170
290, 297, 298, 281
1048, 1203, 1311, 1357
4351, 4373, 4494, 4531
2818, 2794, 2669, 2602
601, 550, 498, 475
186, 201, 174, 174
141, 165, 144, 136
123, 138, 117, 115
116, 149, 144, 117
138, 115, 127, 133
138, 134, 133, 128
119, 120, 136, 144
132, 136, 126, 140
128, 126, 151, 124
128, 128, 147, 132
129, 130, 106, 110
135, 127, 96, 121
133, 122, 125, 133
116, 125, 138, 146
105, 130, 119, 106
131, 132, 107, 114
115
*END

*EOF