File: XRD-20251211/1-4_2-Theta_Omega.asc
*TYPE		=  Raw
*CLASS		=  ASCII CLASS
*SAMPLE		=
*COMMENT	=
*FNAME		=  1-4_2-Theta_Omega.asc
*DATE		=  11-Dec-25 15:21

*GROUP_COUNT	=  1
*GONIO		=  SmartLab(In-plane), 0.000000
*ATTACHMENT	=  Z-Phi Stage
*ASC		=  0, 0, 0.000000, 0.000000
*I_MONOCHRO	=  Soller_slit_5.0deg, 0.000000
*FILTER		=  None
*C_MONOCHRO	=  None, 0.000000
*SLIT_NAME	=  0, Incident slit
*SLIT_NAME	=  1, Receiving slit # 1
*SLIT_NAME	=  2, Receiving slit # 2
*COUNTER	=  SC-70, 0
*POS_FORMAT	=  0
*SCAN_AXIS	=  2Theta/Omega
*MEAS_MODE	=  Continuous Scanning
*TARGET		=  29
*XRAY_CHAR	=  K-ALPHA
*WAVE_LENGTH1	=  1.54059
*WAVE_LENGTH2	=  1.54441
*THICKNESS	=  0, 0.000000
*MU		=  0, 0.000000
*SCAN_MODE	=  2Theta/Omega
*SPEED_DIM	=  sec./step
*XUNIT		=  deg.
*YUNIT		=  counts
*SCALE_MODE	=  1
*REP_COUNT	=  0
*SE_COUNT	=  0
*STD_MATERIAL	=  Unknown, Unknown, 0.000000, 0.000000, 0.000000, 0.000000, 0.000000, 0.000000
*LATT_CONS	=  0, Unknown, Unknown, 0.000000, 0.000000, 0.000000, 0.000000, 0.000000, 0.000000
*SEC_COUNT	=  1
*TSPEC_SIZE	=  0
*EXTRA_SIZE	=  0
*MEMO		=

*BEGIN
*GROUP		=  0
*START		=  20
*STOP		=  80
*STEP		=  0.01
*OFFSET		=  0.000000
*SPEED		=  0.05
*SLIT_SPEC	=  0, 1.000mm, 1, 0.000000
*SLIT_SPEC	=  1, 1.000mm, 1, 0.000000
*SLIT_SPEC	=  2, 1.000mm, 1, 0.000000
*KV		=  40
*MA		=  100
*LOW		=  0.000000
*HIGH		=  0.000000
*CTEMPER	=  0, 0.000000
*CTEMPER	=  1, 0.000000
*CTEMPER	=  2, 0.000000
*PAREX		=  0, 0.000000
*PAREX		=  1, 0.000000
*PAREX		=  2, 0.000000
*PAREX		=  3, 0.000000
*PAREX		=  4, 0.000000
*PAREX		=  5, 0.000000
*PAREX		=  6, 0.000000
*PAREX		=  7, 0.000000
*PAREX		=  8, 0.000000
*PAREX		=  9, 0.000000
*PAREX		=  10, 0.000000
*PAREX		=  11, 0.000000
*PAREX		=  12, 0.000000
*PAREX		=  13, 0.000000
*PAREX		=  14, 0.000000
*PAREX		=  15, 0.000000
*FULL_SCALE	=  7440
*INDEX		=  0, 0, 0
*COUNT		=  6001
76, 75, 86, 78
77, 75, 78, 65
87, 84, 84, 94
71, 84, 84, 90
84, 73, 86, 95
74, 70, 74, 77
79, 83, 84, 75
97, 77, 90, 81
107, 83, 81, 105
64, 89, 76, 78
81, 72, 67, 92
78, 83, 73, 92
92, 80, 76, 77
84, 62, 76, 65
69, 78, 78, 88
60, 90, 77, 71
79, 81, 77, 90
76, 71, 67, 89
69, 75, 83, 61
77, 88, 63, 82
70, 74, 72, 64
78, 72, 76, 81
70, 73, 78, 89
82, 79, 67, 82
80, 78, 76, 85
77, 80, 57, 73
81, 77, 69, 84
78, 68, 88, 79
85, 81, 73, 66
85, 67, 69, 79
82, 67, 75, 68
73, 70, 76, 84
78, 59, 93, 76
79, 90, 70, 62
76, 64, 89, 72
74, 70, 77, 74
69, 71, 75, 78
86, 81, 87, 86
71, 88, 65, 83
75, 81, 75, 55
73, 68, 65, 63
87, 64, 70, 73
81, 67, 72, 84
84, 106, 86, 83
80, 72, 87, 57
80, 84, 85, 62
61, 84, 75, 70
79, 68, 93, 82
69, 77, 79, 64
69, 76, 78, 72
69, 81, 61, 68
77, 71, 57, 77
81, 78, 75, 72
82, 85, 63, 74
78, 82, 69, 68
73, 66, 81, 73
82, 84, 70, 69
69, 78, 75, 65
75, 66, 67, 77
74, 89, 79, 71
60, 67, 58, 54
74, 64, 56, 68
85, 73, 78, 65
65, 66, 73, 78
68, 77, 75, 76
77, 67, 75, 73
83, 74, 77, 64
74, 72, 60, 72
94, 65, 66, 68
73, 83, 77, 77
81, 69, 69, 64
75, 71, 63, 79
81, 76, 86, 69
65, 71, 71, 73
72, 75, 84, 69
63, 80, 79, 56
68, 79, 79, 67
84, 73, 54, 66
84, 72, 66, 78
83, 56, 73, 70
72, 77, 90, 74
73, 79, 74, 76
61, 73, 65, 80
65, 74, 73, 77
82, 67, 64, 91
73, 65, 78, 71
73, 72, 93, 84
76, 63, 61, 70
85, 80, 87, 86
74, 56, 69, 72
72, 62, 76, 80
221, 258, 245, 268
140, 143, 148, 121
101, 102, 87, 84
68, 88, 82, 92
67, 90, 85, 82
68, 75, 74, 91
94, 85, 78, 73
77, 106, 90, 87
158, 178, 157, 177
263, 275, 255, 223
197, 211, 203, 228
151, 126, 146, 145
102, 79, 76, 86
90, 68, 61, 70
88, 84, 60, 67
66, 65, 67, 83
84, 68, 83, 74
67, 84, 76, 58
81, 77, 68, 66
84, 78, 73, 69
58, 77, 78, 65
67, 62, 65, 68
85, 70, 76, 91
65, 79, 76, 75
78, 78, 92, 82
84, 62, 65, 74
61, 57, 76, 81
69, 74, 82, 66
61, 81, 74, 61
56, 67, 96, 66
83, 78, 78, 81
66, 78, 65, 79
87, 76, 87, 66
65, 67, 81, 74
87, 70, 68, 85
82, 75, 69, 75
71, 77, 67, 79
72, 87, 83, 69
78, 84, 75, 76
77, 85, 74, 67
67, 68, 75, 80
55, 79, 81, 81
74, 74, 66, 69
74, 67, 77, 80
87, 69, 74, 84
68, 85, 92, 66
59, 70, 87, 77
70, 84, 81, 74
66, 72, 65, 69
69, 70, 82, 88
79, 85, 82, 63
70, 77, 74, 66
68, 67, 69, 75
67, 74, 79, 82
70, 69, 92, 77
75, 71, 84, 92
65, 102, 86, 76
77, 68, 76, 67
61, 81, 73, 82
84, 72, 68, 77
71, 90, 75, 67
79, 81, 76, 78
77, 75, 71, 84
80, 87, 83, 81
70, 75, 71, 70
71, 67, 61, 83
73, 75, 74, 69
79, 84, 64, 81
87, 84, 61, 82
67, 76, 67, 73
81, 88, 79, 72
81, 93, 79, 91
73, 71, 71, 80
90, 74, 67, 63
82, 74, 69, 68
71, 62, 67, 91
74, 74, 76, 62
83, 64, 90, 86
81, 62, 83, 76
70, 87, 80, 78
68, 72, 67, 83
81, 71, 68, 96
77, 83, 57, 75
89, 85, 78, 68
67, 70, 74, 75
88, 86, 80, 81
72, 68, 77, 82
86, 72, 90, 72
87, 85, 76, 77
84, 89, 68, 82
76, 66, 71, 64
81, 78, 73, 80
73, 85, 82, 77
67, 78, 96, 74
83, 80, 85, 84
90, 89, 86, 89
80, 83, 80, 78
78, 73, 86, 79
102, 73, 61, 80
91, 87, 77, 84
79, 75, 87, 83
74, 68, 84, 84
69, 91, 79, 80
75, 79, 74, 71
74, 102, 77, 83
78, 104, 81, 61
72, 94, 76, 64
70, 77, 79, 73
80, 82, 79, 72
74, 70, 72, 63
75, 73, 70, 81
73, 64, 74, 63
82, 77, 79, 70
98, 75, 63, 87
94, 58, 75, 69
70, 61, 75, 107
71, 71, 78, 72
95, 89, 75, 83
75, 70, 95, 74
64, 61, 63, 87
76, 66, 75, 88
86, 101, 75, 93
70, 72, 84, 61
82, 73, 72, 101
81, 89, 80, 60
95, 74, 85, 66
75, 90, 74, 82
73, 72, 86, 85
84, 87, 78, 73
66, 86, 85, 67
86, 107, 92, 86
88, 85, 91, 77
85, 65, 89, 94
89, 92, 86, 86
84, 82, 93, 90
77, 82, 80, 94
83, 88, 87, 77
72, 80, 93, 67
73, 84, 90, 90
115, 115, 91, 100
99, 103, 107, 104
87, 77, 88, 104
67, 88, 82, 74
80, 81, 64, 76
84, 79, 83, 84
80, 84, 69, 87
95, 102, 100, 87
101, 87, 77, 91
95, 79, 78, 75
78, 82, 84, 85
73, 76, 79, 76
74, 76, 90, 74
92, 79, 80, 91
91, 108, 100, 82
77, 83, 76, 99
93, 76, 85, 86
80, 93, 76, 85
88, 73, 81, 88
85, 76, 72, 67
74
*END

*EOF