File: XRD-20251211/1-5_2-Theta_Omega.asc
*TYPE		=  Raw
*CLASS		=  ASCII CLASS
*SAMPLE		=
*COMMENT	=
*FNAME		=  1-5_2-Theta_Omega.asc
*DATE		=  11-Dec-25 15:27

*GROUP_COUNT	=  1
*GONIO		=  SmartLab(In-plane), 0.000000
*ATTACHMENT	=  Z-Phi Stage
*ASC		=  0, 0, 0.000000, 0.000000
*I_MONOCHRO	=  Soller_slit_5.0deg, 0.000000
*FILTER		=  None
*C_MONOCHRO	=  None, 0.000000
*SLIT_NAME	=  0, Incident slit
*SLIT_NAME	=  1, Receiving slit # 1
*SLIT_NAME	=  2, Receiving slit # 2
*COUNTER	=  SC-70, 0
*POS_FORMAT	=  0
*SCAN_AXIS	=  2Theta/Omega
*MEAS_MODE	=  Continuous Scanning
*TARGET		=  29
*XRAY_CHAR	=  K-ALPHA
*WAVE_LENGTH1	=  1.54059
*WAVE_LENGTH2	=  1.54441
*THICKNESS	=  0, 0.000000
*MU		=  0, 0.000000
*SCAN_MODE	=  2Theta/Omega
*SPEED_DIM	=  sec./step
*XUNIT		=  deg.
*YUNIT		=  counts
*SCALE_MODE	=  1
*REP_COUNT	=  0
*SE_COUNT	=  0
*STD_MATERIAL	=  Unknown, Unknown, 0.000000, 0.000000, 0.000000, 0.000000, 0.000000, 0.000000
*LATT_CONS	=  0, Unknown, Unknown, 0.000000, 0.000000, 0.000000, 0.000000, 0.000000, 0.000000
*SEC_COUNT	=  1
*TSPEC_SIZE	=  0
*EXTRA_SIZE	=  0
*MEMO		=

*BEGIN
*GROUP		=  0
*START		=  20
*STOP		=  80
*STEP		=  0.01
*OFFSET		=  0.000000
*SPEED		=  0.05
*SLIT_SPEC	=  0, 1.000mm, 1, 0.000000
*SLIT_SPEC	=  1, 1.000mm, 1, 0.000000
*SLIT_SPEC	=  2, 1.000mm, 1, 0.000000
*KV		=  40
*MA		=  100
*LOW		=  0.000000
*HIGH		=  0.000000
*CTEMPER	=  0, 0.000000
*CTEMPER	=  1, 0.000000
*CTEMPER	=  2, 0.000000
*PAREX		=  0, 0.000000
*PAREX		=  1, 0.000000
*PAREX		=  2, 0.000000
*PAREX		=  3, 0.000000
*PAREX		=  4, 0.000000
*PAREX		=  5, 0.000000
*PAREX		=  6, 0.000000
*PAREX		=  7, 0.000000
*PAREX		=  8, 0.000000
*PAREX		=  9, 0.000000
*PAREX		=  10, 0.000000
*PAREX		=  11, 0.000000
*PAREX		=  12, 0.000000
*PAREX		=  13, 0.000000
*PAREX		=  14, 0.000000
*PAREX		=  15, 0.000000
*FULL_SCALE	=  5880
*INDEX		=  0, 0, 0
*COUNT		=  6001
92, 70, 83, 57
86, 90, 83, 98
85, 71, 88, 70
71, 87, 81, 90
83, 70, 85, 90
92, 68, 93, 73
58, 117, 82, 82
74, 72, 70, 78
81, 75, 75, 89
80, 83, 80, 82
76, 80, 101, 89
78, 77, 100, 93
57, 72, 76, 74
77, 70, 70, 97
70, 76, 90, 84
88, 76, 86, 81
84, 68, 91, 75
80, 80, 67, 74
60, 77, 79, 93
88, 83, 73, 75
82, 68, 74, 65
86, 85, 71, 86
70, 108, 89, 99
91, 74, 58, 67
82, 70, 75, 105
76, 71, 102, 80
68, 76, 66, 67
82, 75, 84, 91
104, 64, 90, 88
77, 74, 82, 84
71, 86, 65, 92
67, 63, 75, 63
76, 74, 90, 80
78, 78, 92, 89
83, 71, 75, 69
79, 82, 64, 72
84, 85, 82, 74
79, 65, 75, 72
85, 73, 83, 79
89, 75, 84, 87
66, 79, 79, 67
63, 83, 77, 78
80, 83, 80, 63
72, 63, 91, 78
79, 63, 73, 67
69, 74, 73, 83
97, 76, 78, 75
87, 80, 74, 87
88, 74, 78, 85
72, 83, 66, 67
78, 87, 83, 98
88, 63, 79, 74
69, 63, 78, 84
83, 94, 77, 72
67, 71, 78, 72
81, 63, 81, 61
64, 72, 77, 88
77, 73, 84, 75
80, 75, 68, 72
68, 87, 88, 66
81, 86, 72, 86
84, 55, 73, 57
73, 82, 80, 85
69, 63, 74, 73
76, 82, 80, 71
87, 74, 85, 82
92, 65, 85, 78
91, 91, 71, 87
70, 81, 76, 73
80, 96, 84, 78
79, 77, 91, 87
67, 87, 61, 76
74, 78, 70, 66
85, 84, 85, 89
81, 64, 73, 98
69, 79, 72, 80
78, 68, 83, 76
80, 85, 79, 88
92, 89, 78, 66
82, 89, 85, 80
76, 90, 82, 80
83, 77, 65, 90
79, 86, 83, 72
78, 95, 86, 85
86, 81, 85, 71
90, 92, 74, 60
84, 80, 69, 75
78, 83, 73, 86
73, 76, 72, 94
73, 77, 83, 80
77, 81, 79, 73
90, 86, 79, 77
81, 91, 84, 83
73, 75, 88, 78
85, 83, 82, 77
85, 77, 81, 94
82, 88, 102, 104
90, 78, 63, 87
88, 101, 81, 99
171, 161, 171, 210
199, 185, 178, 199
212, 225, 221, 221
167, 165, 151, 151
90, 80, 87, 82
77, 86, 78, 93
104, 83, 79, 89
94, 91, 91, 91
80, 92, 76, 71
80, 75, 78, 96
74, 73, 86, 89
83, 86, 79, 77
89, 70, 94, 89
90, 67, 81, 83
85, 84, 91, 87
75, 86, 79, 91
90, 80, 102, 73
55, 94, 74, 72
73, 91, 86, 83
73, 88, 92, 83
92, 96, 85, 82
80, 82, 55, 72
90, 80, 76, 90
93, 77, 60, 75
70, 81, 71, 81
95, 93, 88, 88
72, 82, 72, 78
76, 73, 94, 63
97, 72, 67, 61
69, 85, 84, 96
80, 81, 86, 88
101, 82, 77, 75
91, 71, 87, 83
77, 79, 87, 78
76, 71, 71, 70
79, 84, 87, 83
72, 91, 90, 75
69, 92, 77, 81
80, 78, 77, 65
81, 75, 80, 84
89, 110, 73, 80
85, 78, 80, 83
89, 79, 86, 81
75, 70, 68, 84
74, 81, 65, 76
78, 68, 90, 96
76, 64, 87, 81
72, 80, 86, 80
85, 64, 83, 77
87, 68, 90, 86
97, 79, 81, 97
82, 96, 83, 63
76, 77, 67, 93
78, 77, 81, 78
67, 72, 88, 62
78, 83, 87, 82
90, 89, 95, 88
80, 76, 90, 88
69, 76, 71, 79
88, 78, 91, 81
78, 91, 74, 84
99, 92, 101, 79
86, 82, 77, 79
69, 88, 93, 69
76, 66, 80, 97
73, 84, 78, 100
75, 62, 102, 82
84, 79, 67, 83
87, 91, 75, 83
95, 75, 92, 81
70, 102, 80, 64
74, 81, 90, 98
95, 91, 92, 95
80, 84, 81, 72
74, 76, 82, 92
76, 79, 80, 76
86, 87, 83, 74
80, 86, 69, 111
73, 72, 90, 97
74, 90, 85, 70
81, 78, 77, 85
70, 86, 90, 77
85, 79, 73, 83
84, 79, 63, 83
78, 88, 75, 81
77, 84, 80, 94
96, 106, 99, 83
108, 93, 95, 117
90, 93, 88, 83
85, 85, 83, 77
99, 79, 81, 100
98, 84, 87, 72
82, 70, 70, 80
92, 105, 90, 93
85, 72, 89, 103
75, 79, 85, 76
85, 87, 93, 79
93, 92, 89, 90
77, 75, 88, 87
76, 79, 88, 78
69, 73, 80, 89
73, 96, 97, 84
77, 73, 79, 91
99, 85, 88, 73
91, 87, 90, 84
73, 77, 94, 91
96, 76, 94, 87
89, 96, 82, 79
83, 86, 83, 81
87, 82, 80, 93
84, 73, 91, 90
99, 92, 83, 84
89, 93, 83, 76
94, 99, 88, 92
74, 93, 78, 82
89, 93, 87, 68
90, 90, 88, 101
81, 84, 75, 93
91, 86, 87, 89
91, 90, 77, 83
95, 67, 82, 85
100, 88, 97, 96
95, 71, 79, 101
92, 71, 87, 88
99, 91, 89, 89
85, 85, 89, 102
91, 86, 93, 86
84, 100, 79, 97
92, 81, 104, 109
100, 81, 89, 83
73, 114, 102, 99
94, 99, 111, 96
98, 88, 89, 97
99, 103, 99, 83
73, 90, 87, 88
89, 88, 86, 94
107, 82, 92, 100
81, 87, 93, 79
90, 102, 100, 84
92, 89, 81, 100
102, 86, 84, 90
91, 74, 83, 88
79, 95, 95, 92
98, 89, 85, 91
88, 86, 88, 102
97, 98, 91, 88
88, 96, 112, 94
96, 77, 102, 90
75, 88, 109, 91
98, 100, 91, 103
101, 99, 88, 86
84
*END

*EOF