File: XRD-20251211/1-6_2-Theta_Omega.asc
*TYPE		=  Raw
*CLASS		=  ASCII CLASS
*SAMPLE		=
*COMMENT	=
*FNAME		=  1-6_2-Theta_Omega.asc
*DATE		=  11-Dec-25 15:35

*GROUP_COUNT	=  1
*GONIO		=  SmartLab(In-plane), 0.000000
*ATTACHMENT	=  Z-Phi Stage
*ASC		=  0, 0, 0.000000, 0.000000
*I_MONOCHRO	=  Soller_slit_5.0deg, 0.000000
*FILTER		=  None
*C_MONOCHRO	=  None, 0.000000
*SLIT_NAME	=  0, Incident slit
*SLIT_NAME	=  1, Receiving slit # 1
*SLIT_NAME	=  2, Receiving slit # 2
*COUNTER	=  SC-70, 0
*POS_FORMAT	=  0
*SCAN_AXIS	=  2Theta/Omega
*MEAS_MODE	=  Continuous Scanning
*TARGET		=  29
*XRAY_CHAR	=  K-ALPHA
*WAVE_LENGTH1	=  1.54059
*WAVE_LENGTH2	=  1.54441
*THICKNESS	=  0, 0.000000
*MU		=  0, 0.000000
*SCAN_MODE	=  2Theta/Omega
*SPEED_DIM	=  sec./step
*XUNIT		=  deg.
*YUNIT		=  counts
*SCALE_MODE	=  1
*REP_COUNT	=  0
*SE_COUNT	=  0
*STD_MATERIAL	=  Unknown, Unknown, 0.000000, 0.000000, 0.000000, 0.000000, 0.000000, 0.000000
*LATT_CONS	=  0, Unknown, Unknown, 0.000000, 0.000000, 0.000000, 0.000000, 0.000000, 0.000000
*SEC_COUNT	=  1
*TSPEC_SIZE	=  0
*EXTRA_SIZE	=  0
*MEMO		=

*BEGIN
*GROUP		=  0
*START		=  20
*STOP		=  80
*STEP		=  0.01
*OFFSET		=  0.000000
*SPEED		=  0.05
*SLIT_SPEC	=  0, 1.000mm, 1, 0.000000
*SLIT_SPEC	=  1, 1.000mm, 1, 0.000000
*SLIT_SPEC	=  2, 1.000mm, 1, 0.000000
*KV		=  40
*MA		=  100
*LOW		=  0.000000
*HIGH		=  0.000000
*CTEMPER	=  0, 0.000000
*CTEMPER	=  1, 0.000000
*CTEMPER	=  2, 0.000000
*PAREX		=  0, 0.000000
*PAREX		=  1, 0.000000
*PAREX		=  2, 0.000000
*PAREX		=  3, 0.000000
*PAREX		=  4, 0.000000
*PAREX		=  5, 0.000000
*PAREX		=  6, 0.000000
*PAREX		=  7, 0.000000
*PAREX		=  8, 0.000000
*PAREX		=  9, 0.000000
*PAREX		=  10, 0.000000
*PAREX		=  11, 0.000000
*PAREX		=  12, 0.000000
*PAREX		=  13, 0.000000
*PAREX		=  14, 0.000000
*PAREX		=  15, 0.000000
*FULL_SCALE	=  1185694.6
*INDEX		=  0, 0, 0
*COUNT		=  6001
87, 96, 91, 94
81, 87, 82, 99
98, 105, 97, 87
94, 89, 103, 100
84, 97, 93, 95
98, 89, 84, 85
97, 84, 95, 92
105, 85, 79, 94
72, 96, 86, 83
88, 92, 84, 89
81, 97, 94, 96
96, 81, 88, 74
86, 76, 70, 85
89, 93, 95, 71
96, 85, 82, 92
107, 75, 68, 90
93, 72, 74, 92
85, 93, 99, 86
94, 76, 80, 85
85, 78, 85, 89
91, 97, 91, 81
95, 95, 99, 87
83, 102, 101, 97
83, 83, 97, 83
104, 101, 97, 116
101, 120, 110, 112
92, 109, 117, 143
116, 117, 113, 113
120, 111, 140, 87
108, 100, 90, 90
102, 98, 104, 113
97, 82, 93, 87
106, 102, 91, 109
87, 100, 91, 99
90, 75, 98, 89
90, 84, 95, 86
106, 83, 84, 95
102, 103, 97, 91
90, 102, 77, 98
91, 89, 100, 79
80, 104, 106, 95
86, 81, 80, 87
93, 111, 73, 91
94, 107, 99, 105
79, 100, 84, 96
100, 105, 95, 91
92, 95, 97, 98
100, 116, 88, 89
94, 86, 71, 80
82, 114, 106, 102
99, 97, 96, 84
95, 94, 105, 95
93, 79, 112, 81
102, 84, 91, 115
103, 110, 94, 95
99, 111, 111, 83
94, 96, 112, 89
92, 101, 96, 95
100, 124, 81, 131
142, 132, 134, 120
158, 126, 141, 145
320, 306, 323, 334
277, 296, 273, 273
320, 333, 349, 326
491, 536, 562, 556
1450, 1508, 1585, 1570
1354, 1303, 1318, 1261
570, 574, 527, 513
219, 203, 189, 196
122, 117, 130, 126
111, 97, 116, 97
94, 98, 88, 106
98, 111, 104, 113
118, 108, 109, 128
126, 110, 138, 128
106, 114, 102, 109
121, 106, 130, 97
107, 103, 86, 109
105, 120, 106, 124
102, 115, 120, 117
122, 106, 127, 121
114, 106, 122, 143
152, 175, 139, 145
234, 323, 320, 378
191, 159, 175, 150
162, 171, 182, 164
169, 195, 181, 169
193, 205, 198, 200
191, 242, 196, 208
213, 227, 229, 223
532, 585, 638, 681
45201.3, 49403.9, 43987.3, 39504.5
678, 624, 531, 510
221, 242, 220, 225
183, 183, 158, 173
163, 136, 159, 113
119, 126, 132, 162
143, 137, 157, 150
142, 169, 152, 157
245, 260, 299, 316
2759, 2903, 3053, 3337
2848, 2597, 2515, 2273
307, 330, 261, 292
144, 149, 123, 136
123, 114, 127, 116
86, 120, 119, 110
89, 114, 125, 106
98, 123, 102, 106
94, 127, 97, 122
100, 94, 94, 97
111, 97, 93, 109
94, 100, 113, 106
108, 113, 86, 105
93, 132, 116, 105
111, 101, 99, 107
95, 101, 99, 125
135, 122, 110, 88
102, 105, 110, 86
81, 104, 114, 91
106, 87, 113, 87
106, 102, 90, 107
118, 100, 93, 81
103, 106, 112, 110
114, 98, 111, 116
85, 114, 105, 92
94, 121, 88, 103
99, 94, 116, 91
119, 106, 118, 107
113, 109, 92, 95
86, 93, 112, 109
112, 92, 107, 91
109, 97, 90, 90
104, 109, 112, 115
105, 105, 80, 101
124, 123, 112, 103
101, 98, 105, 105
116, 118, 102, 98
101, 100, 120, 110
91, 109, 106, 112
105, 113, 102, 95
133, 90, 114, 96
111, 103, 102, 87
112, 107, 113, 115
95, 127, 117, 105
102, 100, 106, 99
102, 120, 103, 128
98, 99, 112, 106
114, 84, 99, 108
117, 111, 106, 105
111, 133, 102, 117
99, 106, 94, 83
91, 80, 98, 109
117, 106, 115, 114
93, 108, 100, 97
104, 103, 101, 89
94, 96, 110, 122
108, 126, 90, 109
107, 110, 92, 82
98, 95, 105, 100
128, 103, 109, 100
90, 107, 86, 92
113, 105, 113, 118
108, 129, 98, 77
112, 121, 124, 122
116, 121, 103, 123
81, 87, 102, 106
106, 96, 109, 105
132, 107, 109, 89
83, 96, 122, 84
118, 96, 103, 96
109, 100, 118, 98
98, 98, 102, 112
112, 112, 102, 110
104, 113, 83, 109
121, 115, 113, 91
108, 94, 118, 108
107, 114, 103, 118
98, 107, 90, 107
96, 110, 99, 112
111, 102, 99, 96
81, 99, 86, 104
100, 96, 128, 104
103, 103, 99, 107
97, 90, 112, 96
110, 91, 104, 110
128, 109, 95, 103
112, 125, 121, 111
103, 111, 106, 120
127, 119, 101, 103
99, 112, 96, 89
99, 123, 93, 116
97, 103, 105, 115
103, 103, 100, 130
114, 115, 85, 109
100, 113, 96, 118
111, 123, 108, 95
129, 98, 119, 111
108, 140, 139, 117
112, 100, 95, 96
113, 118, 102, 104
108, 105, 124, 107
107, 100, 101, 107
79, 122, 104, 108
125, 111, 130, 100
108, 110, 110, 121
125, 129, 102, 111
116, 119, 108, 107
112, 98, 124, 131
130, 108, 95, 105
109, 107, 96, 113
115, 106, 90, 116
106, 99, 110, 111
130, 114, 116, 128
123, 103, 119, 104
106, 108, 122, 116
128, 143, 113, 132
171, 168, 127, 163
165, 124, 107, 113
138, 113, 135, 100
125, 138, 107, 132
121, 122, 127, 139
133, 126, 130, 148
116, 128, 125, 112
145, 122, 145, 153
115, 129, 142, 111
121, 130, 150, 137
127, 128, 134, 132
160, 151, 160, 146
203, 177, 160, 200
271, 307, 284, 316
919, 1012, 1091, 1222
4401, 4573, 4553, 4753
3373, 3182, 3129, 3006
823, 728, 661, 649
217, 219, 185, 220
171, 166, 162, 164
135, 131, 136, 131
142, 119, 138, 143
126, 126, 118, 119
124, 115, 117, 114
110, 125, 145, 137
131, 109, 111, 108
105, 120, 125, 99
117, 109, 114, 121
129, 135, 114, 129
116, 119, 102, 105
101, 99, 107, 98
105, 130, 109, 117
125, 102, 117, 135
126, 136, 105, 117
166
*END

*EOF