File: XRD-20251211/1-7_2-Theta_Omega.asc
*TYPE		=  Raw
*CLASS		=  ASCII CLASS
*SAMPLE		=
*COMMENT	=
*FNAME		=  1-7_2-Theta_Omega.asc
*DATE		=  11-Dec-25 15:42

*GROUP_COUNT	=  1
*GONIO		=  SmartLab(In-plane), 0.000000
*ATTACHMENT	=  Z-Phi Stage
*ASC		=  0, 0, 0.000000, 0.000000
*I_MONOCHRO	=  Soller_slit_5.0deg, 0.000000
*FILTER		=  None
*C_MONOCHRO	=  None, 0.000000
*SLIT_NAME	=  0, Incident slit
*SLIT_NAME	=  1, Receiving slit # 1
*SLIT_NAME	=  2, Receiving slit # 2
*COUNTER	=  SC-70, 0
*POS_FORMAT	=  0
*SCAN_AXIS	=  2Theta/Omega
*MEAS_MODE	=  Continuous Scanning
*TARGET		=  29
*XRAY_CHAR	=  K-ALPHA
*WAVE_LENGTH1	=  1.54059
*WAVE_LENGTH2	=  1.54441
*THICKNESS	=  0, 0.000000
*MU		=  0, 0.000000
*SCAN_MODE	=  2Theta/Omega
*SPEED_DIM	=  sec./step
*XUNIT		=  deg.
*YUNIT		=  counts
*SCALE_MODE	=  1
*REP_COUNT	=  0
*SE_COUNT	=  0
*STD_MATERIAL	=  Unknown, Unknown, 0.000000, 0.000000, 0.000000, 0.000000, 0.000000, 0.000000
*LATT_CONS	=  0, Unknown, Unknown, 0.000000, 0.000000, 0.000000, 0.000000, 0.000000, 0.000000
*SEC_COUNT	=  1
*TSPEC_SIZE	=  0
*EXTRA_SIZE	=  0
*MEMO		=

*BEGIN
*GROUP		=  0
*START		=  20
*STOP		=  80
*STEP		=  0.01
*OFFSET		=  0.000000
*SPEED		=  0.05
*SLIT_SPEC	=  0, 1.000mm, 1, 0.000000
*SLIT_SPEC	=  1, 1.000mm, 1, 0.000000
*SLIT_SPEC	=  2, 1.000mm, 1, 0.000000
*KV		=  40
*MA		=  100
*LOW		=  0.000000
*HIGH		=  0.000000
*CTEMPER	=  0, 0.000000
*CTEMPER	=  1, 0.000000
*CTEMPER	=  2, 0.000000
*PAREX		=  0, 0.000000
*PAREX		=  1, 0.000000
*PAREX		=  2, 0.000000
*PAREX		=  3, 0.000000
*PAREX		=  4, 0.000000
*PAREX		=  5, 0.000000
*PAREX		=  6, 0.000000
*PAREX		=  7, 0.000000
*PAREX		=  8, 0.000000
*PAREX		=  9, 0.000000
*PAREX		=  10, 0.000000
*PAREX		=  11, 0.000000
*PAREX		=  12, 0.000000
*PAREX		=  13, 0.000000
*PAREX		=  14, 0.000000
*PAREX		=  15, 0.000000
*FULL_SCALE	=  49728
*INDEX		=  0, 0, 0
*COUNT		=  6001
79, 77, 95, 94
90, 77, 94, 81
94, 99, 76, 92
96, 82, 82, 73
86, 81, 79, 92
83, 89, 78, 71
69, 71, 77, 67
90, 83, 80, 91
91, 92, 91, 92
87, 90, 74, 88
82, 94, 76, 73
94, 73, 83, 81
85, 75, 80, 100
87, 91, 78, 88
87, 89, 98, 74
92, 74, 94, 63
82, 91, 100, 86
80, 93, 89, 90
83, 89, 81, 84
101, 98, 81, 80
95, 87, 80, 94
100, 90, 92, 89
92, 115, 106, 95
109, 102, 106, 103
129, 117, 121, 119
154, 176, 141, 166
236, 246, 220, 246
224, 268, 214, 229
183, 172, 180, 183
115, 112, 120, 113
113, 100, 94, 107
103, 101, 82, 106
83, 94, 78, 78
87, 74, 88, 100
71, 92, 56, 91
61, 67, 100, 72
77, 80, 76, 72
74, 79, 78, 84
86, 88, 89, 94
100, 93, 92, 94
94, 84, 79, 92
101, 78, 82, 83
80, 94, 89, 74
78, 92, 77, 72
106, 57, 91, 77
99, 86, 82, 77
88, 93, 95, 87
79, 87, 88, 71
104, 82, 77, 83
74, 79, 69, 85
95, 69, 85, 75
94, 79, 82, 85
88, 89, 88, 73
90, 94, 101, 77
88, 63, 91, 82
92, 70, 81, 72
85, 85, 80, 84
90, 81, 69, 85
84, 95, 92, 96
81, 81, 78, 82
87, 90, 84, 91
75, 77, 87, 92
95, 76, 77, 93
74, 98, 91, 92
87, 90, 80, 95
95, 114, 84, 112
102, 127, 111, 95
113, 126, 116, 115
110, 109, 117, 110
110, 93, 104, 103
102, 90, 95, 82
79, 104, 93, 78
81, 78, 86, 88
93, 78, 96, 81
101, 81, 85, 91
76, 91, 82, 95
82, 83, 82, 85
86, 93, 99, 93
105, 90, 109, 81
87, 77, 72, 90
80, 98, 87, 84
74, 89, 92, 93
75, 94, 112, 83
84, 89, 79, 99
99, 82, 94, 91
72, 81, 72, 80
97, 85, 95, 92
90, 67, 81, 89
79, 78, 80, 71
96, 83, 81, 94
80, 108, 101, 79
70, 115, 87, 101
82, 85, 91, 114
101, 94, 114, 104
88, 101, 108, 104
110, 97, 113, 100
115, 102, 102, 117
104, 117, 108, 112
116, 126, 137, 112
120, 136, 125, 140
282, 330, 379, 440
1876, 2072, 1927, 1983
541, 476, 433, 388
130, 124, 146, 127
94, 117, 113, 110
98, 93, 98, 98
94, 99, 102, 117
94, 95, 88, 88
112, 96, 91, 102
105, 87, 108, 85
90, 88, 69, 99
97, 95, 90, 102
89, 87, 97, 93
84, 92, 80, 90
100, 87, 86, 99
74, 88, 97, 97
83, 84, 91, 80
90, 93, 92, 101
80, 88, 91, 92
90, 78, 87, 82
86, 70, 86, 109
99, 94, 102, 90
76, 84, 85, 100
91, 79, 92, 96
97, 99, 83, 103
83, 82, 75, 75
86, 89, 78, 79
87, 85, 97, 89
82, 82, 106, 77
92, 88, 95, 84
75, 94, 77, 100
91, 88, 92, 83
83, 90, 100, 84
73, 83, 94, 77
77, 94, 86, 90
85, 97, 78, 96
83, 94, 95, 111
93, 99, 96, 94
99, 105, 104, 78
108, 108, 76, 94
101, 79, 110, 103
98, 94, 111, 97
113, 89, 91, 90
94, 88, 71, 79
97, 91, 133, 98
75, 102, 83, 72
101, 102, 83, 82
80, 76, 82, 79
83, 71, 81, 85
88, 100, 105, 102
94, 85, 83, 82
97, 66, 80, 105
73, 90, 110, 71
90, 103, 95, 93
107, 83, 90, 102
88, 88, 89, 92
101, 91, 91, 92
89, 89, 88, 88
88, 108, 86, 91
87, 89, 90, 103
84, 96, 95, 86
103, 102, 91, 87
82, 90, 70, 95
76, 78, 88, 86
83, 90, 95, 88
86, 111, 91, 96
87, 83, 96, 101
93, 99, 98, 101
100, 77, 103, 101
78, 70, 94, 82
106, 92, 96, 87
109, 102, 80, 100
81, 89, 94, 100
86, 92, 86, 116
81, 102, 81, 106
83, 97, 91, 82
104, 91, 102, 76
69, 91, 95, 99
101, 110, 78, 81
86, 95, 88, 104
107, 90, 108, 85
94, 101, 84, 95
87, 102, 99, 89
91, 96, 86, 87
89, 89, 107, 89
109, 102, 108, 92
98, 115, 110, 121
110, 112, 104, 87
94, 93, 85, 99
93, 105, 97, 103
114, 87, 87, 104
100, 100, 91, 95
92, 102, 88, 94
92, 92, 101, 89
90, 96, 104, 99
70, 85, 85, 83
93, 106, 100, 83
91, 93, 96, 89
70, 110, 87, 102
103, 96, 97, 87
90, 86, 124, 98
95, 96, 96, 102
101, 100, 96, 93
86, 84, 96, 91
86, 96, 89, 89
95, 85, 111, 86
100, 104, 97, 109
85, 108, 88, 100
77, 113, 100, 86
101, 91, 89, 87
94, 92, 99, 82
89, 80, 117, 93
100, 94, 102, 91
86, 114, 88, 84
108, 108, 105, 97
91, 122, 104, 104
102, 97, 110, 98
88, 95, 100, 88
104, 103, 83, 87
92, 89, 98, 101
98, 98, 94, 110
96, 101, 97, 104
100, 104, 96, 104
105, 95, 98, 76
108, 101, 84, 117
106, 98, 93, 99
86, 123, 118, 115
120, 102, 103, 123
103, 115, 109, 117
104, 121, 144, 146
196, 190, 176, 195
969, 984, 1095, 1118
1173, 1115, 1092, 1049
402, 333, 334, 316
150, 139, 132, 112
117, 119, 121, 102
105, 90, 100, 91
104, 96, 115, 99
95, 110, 95, 104
90, 107, 111, 116
122, 115, 95, 86
107, 101, 103, 104
126, 110, 110, 119
95, 99, 113, 102
94, 106, 110, 98
119, 96, 83, 116
110, 91, 95, 104
94, 93, 90, 94
99, 107, 109, 125
109, 104, 98, 102
102
*END

*EOF