File: XRD-20251211/1-8_2-Theta_Omega.asc
*TYPE		=  Raw
*CLASS		=  ASCII CLASS
*SAMPLE		=
*COMMENT	=
*FNAME		=  1-8_2-Theta_Omega.asc
*DATE		=  11-Dec-25 15:50

*GROUP_COUNT	=  1
*GONIO		=  SmartLab(In-plane), 0.000000
*ATTACHMENT	=  Z-Phi Stage
*ASC		=  0, 0, 0.000000, 0.000000
*I_MONOCHRO	=  Soller_slit_5.0deg, 0.000000
*FILTER		=  None
*C_MONOCHRO	=  None, 0.000000
*SLIT_NAME	=  0, Incident slit
*SLIT_NAME	=  1, Receiving slit # 1
*SLIT_NAME	=  2, Receiving slit # 2
*COUNTER	=  SC-70, 0
*POS_FORMAT	=  0
*SCAN_AXIS	=  2Theta/Omega
*MEAS_MODE	=  Continuous Scanning
*TARGET		=  29
*XRAY_CHAR	=  K-ALPHA
*WAVE_LENGTH1	=  1.54059
*WAVE_LENGTH2	=  1.54441
*THICKNESS	=  0, 0.000000
*MU		=  0, 0.000000
*SCAN_MODE	=  2Theta/Omega
*SPEED_DIM	=  sec./step
*XUNIT		=  deg.
*YUNIT		=  counts
*SCALE_MODE	=  1
*REP_COUNT	=  0
*SE_COUNT	=  0
*STD_MATERIAL	=  Unknown, Unknown, 0.000000, 0.000000, 0.000000, 0.000000, 0.000000, 0.000000
*LATT_CONS	=  0, Unknown, Unknown, 0.000000, 0.000000, 0.000000, 0.000000, 0.000000, 0.000000
*SEC_COUNT	=  1
*TSPEC_SIZE	=  0
*EXTRA_SIZE	=  0
*MEMO		=

*BEGIN
*GROUP		=  0
*START		=  20
*STOP		=  80
*STEP		=  0.01
*OFFSET		=  0.000000
*SPEED		=  0.05
*SLIT_SPEC	=  0, 1.000mm, 1, 0.000000
*SLIT_SPEC	=  1, 1.000mm, 1, 0.000000
*SLIT_SPEC	=  2, 1.000mm, 1, 0.000000
*KV		=  40
*MA		=  100
*LOW		=  0.000000
*HIGH		=  0.000000
*CTEMPER	=  0, 0.000000
*CTEMPER	=  1, 0.000000
*CTEMPER	=  2, 0.000000
*PAREX		=  0, 0.000000
*PAREX		=  1, 0.000000
*PAREX		=  2, 0.000000
*PAREX		=  3, 0.000000
*PAREX		=  4, 0.000000
*PAREX		=  5, 0.000000
*PAREX		=  6, 0.000000
*PAREX		=  7, 0.000000
*PAREX		=  8, 0.000000
*PAREX		=  9, 0.000000
*PAREX		=  10, 0.000000
*PAREX		=  11, 0.000000
*PAREX		=  12, 0.000000
*PAREX		=  13, 0.000000
*PAREX		=  14, 0.000000
*PAREX		=  15, 0.000000
*FULL_SCALE	=  4567950.5
*INDEX		=  0, 0, 0
*COUNT		=  6001
98, 104, 72, 89
87, 82, 83, 85
91, 96, 104, 84
93, 76, 64, 86
88, 89, 93, 79
102, 89, 89, 95
90, 93, 106, 87
71, 82, 106, 102
99, 104, 101, 91
100, 85, 91, 81
81, 109, 85, 91
95, 79, 93, 101
103, 81, 102, 79
89, 83, 95, 80
95, 90, 83, 94
82, 91, 76, 89
82, 100, 84, 106
87, 103, 92, 106
92, 93, 94, 93
84, 85, 98, 88
91, 82, 95, 99
112, 90, 86, 91
90, 79, 98, 93
80, 87, 83, 90
88, 95, 99, 111
98, 90, 93, 97
102, 82, 91, 85
100, 91, 106, 84
106, 91, 93, 86
99, 90, 92, 97
96, 107, 107, 80
105, 106, 96, 87
99, 95, 105, 117
94, 86, 90, 85
72, 99, 92, 107
104, 89, 93, 86
111, 97, 94, 105
103, 101, 103, 86
91, 94, 104, 101
108, 97, 86, 88
97, 82, 100, 98
100, 91, 87, 108
109, 97, 98, 88
102, 77, 86, 96
90, 92, 88, 89
94, 101, 102, 112
287, 308, 369, 368
544, 449, 434, 379
129, 151, 119, 158
146, 140, 126, 142
141, 142, 164, 119
143, 176, 166, 150
195, 146, 172, 179
211, 215, 210, 214
441, 494, 586, 654
1006, 944, 826, 829
656, 626, 544, 544
625, 616, 597, 589
739, 798, 766, 760
1079, 996, 1108, 1087
4435, 5220, 7076, 10925
185475, 178237, 167731, 157551
4723, 3932, 3117, 2799
821, 838, 748, 778
448, 521, 513, 471
373, 333, 354, 366
204, 220, 241, 211
170, 165, 178, 178
144, 155, 147, 132
120, 139, 115, 143
127, 124, 109, 121
101, 125, 114, 128
133, 136, 126, 127
136, 128, 134, 159
116, 120, 125, 103
114, 101, 125, 99
120, 113, 122, 103
98, 98, 97, 118
119, 95, 103, 106
107, 85, 118, 101
92, 105, 95, 119
120, 108, 108, 97
121, 127, 122, 125
170, 129, 143, 132
96, 103, 115, 131
113, 119, 96, 90
114, 128, 113, 108
112, 131, 129, 129
101, 149, 122, 125
124, 129, 153, 141
1226, 1468, 1586, 1681
1776, 1852, 1987, 1999
153, 175, 161, 187
151, 116, 113, 144
113, 110, 111, 126
109, 122, 117, 117
142, 123, 130, 123
134, 152, 109, 125
144, 152, 148, 144
200, 253, 279, 298
3049, 3228, 3308, 3517
980, 885, 781, 670
230, 215, 191, 201
152, 143, 114, 121
119, 110, 111, 111
114, 127, 111, 128
111, 106, 107, 105
121, 117, 113, 110
89, 111, 125, 129
105, 107, 109, 102
96, 131, 101, 108
103, 97, 106, 104
106, 112, 102, 124
100, 116, 96, 105
112, 118, 109, 107
117, 126, 96, 119
111, 99, 108, 81
101, 122, 116, 121
114, 112, 103, 94
103, 109, 123, 125
95, 111, 81, 109
122, 132, 99, 111
100, 104, 102, 117
85, 117, 136, 94
110, 130, 122, 120
125, 115, 106, 108
98, 105, 137, 122
101, 109, 104, 113
112, 121, 107, 104
117, 102, 119, 115
100, 101, 117, 91
100, 106, 94, 111
94, 111, 118, 112
111, 93, 97, 109
108, 115, 110, 113
132, 108, 114, 117
130, 117, 127, 139
107, 93, 96, 97
116, 116, 113, 113
94, 108, 100, 105
106, 107, 109, 123
111, 100, 109, 121
113, 108, 121, 119
102, 115, 125, 94
105, 119, 126, 102
101, 95, 104, 97
102, 106, 107, 88
112, 124, 125, 109
112, 99, 117, 114
108, 111, 103, 97
104, 115, 116, 94
113, 124, 104, 119
92, 95, 111, 89
119, 102, 106, 110
108, 100, 110, 106
101, 95, 118, 113
106, 127, 101, 111
104, 106, 94, 96
112, 108, 110, 104
108, 134, 106, 96
100, 119, 114, 109
126, 114, 104, 113
111, 110, 117, 116
123, 101, 113, 102
114, 115, 118, 146
118, 110, 123, 106
98, 86, 122, 116
105, 104, 125, 110
101, 104, 102, 125
116, 112, 114, 112
122, 91, 114, 112
135, 104, 97, 93
133, 96, 115, 116
99, 131, 117, 137
118, 96, 91, 109
117, 114, 100, 113
116, 107, 102, 111
135, 110, 121, 114
101, 113, 121, 122
127, 109, 111, 119
115, 95, 124, 118
100, 107, 119, 116
112, 111, 123, 114
124, 124, 115, 113
126, 120, 116, 134
116, 124, 141, 129
147, 124, 120, 115
294, 270, 277, 302
141, 166, 171, 163
119, 142, 116, 123
105, 117, 124, 96
114, 111, 124, 124
107, 126, 116, 109
113, 114, 116, 109
117, 96, 114, 110
117, 123, 131, 121
124, 130, 130, 126
123, 119, 118, 123
101, 123, 114, 94
123, 125, 116, 116
122, 136, 113, 134
116, 124, 109, 144
127, 127, 137, 133
129, 147, 136, 137
126, 142, 144, 130
153, 177, 173, 197
421, 400, 394, 381
179, 170, 170, 146
202, 196, 182, 194
170, 175, 162, 180
156, 171, 170, 170
182, 183, 171, 203
224, 203, 179, 183
201, 189, 187, 176
219, 222, 196, 208
220, 216, 230, 229
256, 246, 274, 241
290, 270, 268, 288
429, 406, 431, 482
1127, 1040, 1107, 1186
36702.7, 39224.3, 41092.1, 44874.5
31005.9, 30025.3, 27503.7, 24748.7
3421, 3036, 2596, 2249
523, 502, 510, 471
311, 345, 338, 334
249, 288, 256, 262
218, 225, 218, 226
186, 208, 191, 196
200, 178, 177, 216
182, 202, 188, 205
361, 398, 445, 506
1404, 1369, 1490, 1481
747, 795, 810, 784
173, 173, 177, 164
168, 140, 166, 162
150, 130, 146, 142
140, 120, 139, 149
124, 130, 141, 136
122, 140, 131, 137
113, 127, 131, 127
123, 131, 139, 125
134, 136, 126, 122
133, 123, 136, 133
133, 141, 136, 130
102, 109, 133, 115
105, 117, 130, 124
118, 131, 116, 117
118, 121, 135, 115
151, 127, 142, 126
110, 132, 116, 136
191
*END

*EOF