File: XRD-20251211/2-1_2-Theta_Omega.asc
*TYPE		=  Raw
*CLASS		=  ASCII CLASS
*SAMPLE		=
*COMMENT	=
*FNAME		=  1-9_2-Theta_Omega.asc
*DATE		=  11-Dec-25 15:57

*GROUP_COUNT	=  1
*GONIO		=  SmartLab(In-plane), 0.000000
*ATTACHMENT	=  Z-Phi Stage
*ASC		=  0, 0, 0.000000, 0.000000
*I_MONOCHRO	=  Soller_slit_5.0deg, 0.000000
*FILTER		=  None
*C_MONOCHRO	=  None, 0.000000
*SLIT_NAME	=  0, Incident slit
*SLIT_NAME	=  1, Receiving slit # 1
*SLIT_NAME	=  2, Receiving slit # 2
*COUNTER	=  SC-70, 0
*POS_FORMAT	=  0
*SCAN_AXIS	=  2Theta/Omega
*MEAS_MODE	=  Continuous Scanning
*TARGET		=  29
*XRAY_CHAR	=  K-ALPHA
*WAVE_LENGTH1	=  1.54059
*WAVE_LENGTH2	=  1.54441
*THICKNESS	=  0, 0.000000
*MU		=  0, 0.000000
*SCAN_MODE	=  2Theta/Omega
*SPEED_DIM	=  sec./step
*XUNIT		=  deg.
*YUNIT		=  counts
*SCALE_MODE	=  1
*REP_COUNT	=  0
*SE_COUNT	=  0
*STD_MATERIAL	=  Unknown, Unknown, 0.000000, 0.000000, 0.000000, 0.000000, 0.000000, 0.000000
*LATT_CONS	=  0, Unknown, Unknown, 0.000000, 0.000000, 0.000000, 0.000000, 0.000000, 0.000000
*SEC_COUNT	=  1
*TSPEC_SIZE	=  0
*EXTRA_SIZE	=  0
*MEMO		=

*BEGIN
*GROUP		=  0
*START		=  20
*STOP		=  80
*STEP		=  0.01
*OFFSET		=  0.000000
*SPEED		=  0.05
*SLIT_SPEC	=  0, 1.000mm, 1, 0.000000
*SLIT_SPEC	=  1, 1.000mm, 1, 0.000000
*SLIT_SPEC	=  2, 1.000mm, 1, 0.000000
*KV		=  40
*MA		=  100
*LOW		=  0.000000
*HIGH		=  0.000000
*CTEMPER	=  0, 0.000000
*CTEMPER	=  1, 0.000000
*CTEMPER	=  2, 0.000000
*PAREX		=  0, 0.000000
*PAREX		=  1, 0.000000
*PAREX		=  2, 0.000000
*PAREX		=  3, 0.000000
*PAREX		=  4, 0.000000
*PAREX		=  5, 0.000000
*PAREX		=  6, 0.000000
*PAREX		=  7, 0.000000
*PAREX		=  8, 0.000000
*PAREX		=  9, 0.000000
*PAREX		=  10, 0.000000
*PAREX		=  11, 0.000000
*PAREX		=  12, 0.000000
*PAREX		=  13, 0.000000
*PAREX		=  14, 0.000000
*PAREX		=  15, 0.000000
*FULL_SCALE	=  257352
*INDEX		=  0, 0, 0
*COUNT		=  6001
107, 104, 104, 108
136, 118, 113, 117
111, 115, 126, 114
109, 100, 104, 128
115, 108, 145, 113
117, 115, 107, 139
111, 119, 119, 126
122, 134, 113, 121
102, 126, 105, 95
128, 107, 113, 132
122, 119, 101, 131
110, 110, 112, 111
127, 110, 120, 121
119, 100, 102, 119
111, 111, 125, 124
111, 99, 125, 102
114, 125, 115, 123
125, 109, 116, 99
99, 103, 108, 146
103, 109, 90, 118
114, 102, 117, 121
100, 101, 106, 122
113, 106, 129, 105
111, 92, 115, 105
122, 116, 113, 96
126, 125, 114, 104
125, 115, 106, 129
97, 124, 125, 124
123, 137, 104, 118
133, 129, 95, 114
101, 112, 131, 95
120, 129, 134, 138
102, 120, 104, 106
113, 102, 101, 110
110, 125, 114, 119
119, 104, 124, 104
122, 114, 114, 109
130, 106, 107, 105
98, 107, 115, 95
113, 129, 111, 137
116, 124, 120, 105
106, 138, 117, 114
113, 130, 114, 134
113, 121, 122, 115
124, 111, 115, 117
129, 127, 121, 106
120, 101, 131, 117
113, 126, 113, 99
132, 115, 111, 119
109, 107, 110, 122
112, 97, 123, 103
107, 118, 111, 149
100, 102, 104, 114
127, 105, 102, 120
103, 108, 122, 118
109, 103, 99, 127
114, 109, 116, 120
132, 134, 134, 118
106, 111, 120, 124
122, 140, 121, 116
116, 92, 127, 141
109, 119, 101, 108
105, 121, 139, 99
122, 121, 128, 121
127, 90, 125, 129
124, 119, 116, 113
116, 119, 119, 130
106, 119, 109, 126
109, 123, 124, 91
98, 123, 128, 108
133, 129, 106, 113
113, 109, 110, 106
120, 116, 143, 115
121, 141, 158, 143
120, 123, 133, 114
123, 116, 128, 127
107, 115, 117, 118
111, 110, 130, 131
119, 119, 133, 119
110, 136, 110, 123
113, 116, 114, 118
154, 140, 168, 173
148, 143, 132, 127
153, 146, 161, 167
123, 141, 133, 160
138, 116, 150, 146
126, 122, 128, 117
125, 131, 161, 143
139, 149, 152, 136
202, 227, 246, 216
3580, 4140, 4248, 3932
892, 1117, 1262, 1307
235, 238, 240, 241
169, 188, 192, 168
207, 181, 177, 162
177, 182, 165, 174
171, 156, 172, 181
197, 198, 211, 173
172, 212, 227, 228
792, 994, 1293, 1464
10405, 9959, 9423, 8943
1326, 1240, 1135, 1005
288, 283, 246, 263
170, 183, 187, 154
135, 159, 131, 133
131, 143, 134, 139
131, 123, 144, 118
122, 124, 131, 143
126, 128, 144, 123
131, 118, 112, 128
111, 131, 116, 124
96, 125, 123, 118
145, 119, 138, 140
102, 114, 100, 123
133, 134, 128, 117
129, 136, 139, 127
122, 127, 115, 140
123, 142, 127, 110
128, 110, 122, 124
108, 125, 135, 109
130, 128, 118, 122
132, 115, 127, 129
121, 112, 117, 130
128, 124, 112, 135
115, 119, 114, 125
135, 125, 109, 123
125, 110, 130, 121
134, 127, 126, 148
109, 126, 123, 137
117, 124, 131, 139
124, 134, 116, 121
112, 146, 133, 139
110, 118, 117, 112
127, 132, 125, 128
151, 116, 117, 132
143, 129, 121, 133
116, 133, 125, 145
128, 136, 111, 122
120, 129, 133, 147
121, 125, 146, 142
122, 121, 106, 140
123, 125, 155, 122
108, 123, 138, 129
135, 132, 125, 137
121, 124, 131, 135
130, 105, 117, 121
118, 121, 107, 126
125, 106, 118, 126
126, 115, 138, 145
152, 124, 126, 120
107, 127, 134, 117
129, 115, 113, 127
121, 127, 121, 117
127, 123, 138, 138
139, 128, 111, 121
130, 131, 120, 132
123, 113, 125, 134
111, 131, 109, 120
134, 109, 122, 125
156, 133, 148, 134
136, 139, 138, 143
110, 139, 141, 142
122, 135, 120, 114
118, 101, 119, 142
136, 126, 133, 133
126, 121, 137, 149
116, 128, 119, 118
141, 120, 125, 138
115, 129, 131, 112
114, 126, 128, 107
126, 140, 123, 109
121, 124, 134, 113
113, 112, 123, 110
109, 134, 108, 122
116, 126, 114, 129
125, 118, 123, 117
116, 117, 126, 140
119, 124, 143, 114
107, 124, 137, 142
131, 130, 125, 101
139, 134, 121, 127
120, 130, 113, 131
105, 165, 135, 137
127, 141, 127, 120
126, 152, 122, 145
131, 150, 157, 122
133, 156, 145, 148
145, 130, 144, 122
109, 117, 127, 130
116, 110, 130, 137
112, 110, 136, 128
117, 117, 117, 124
127, 125, 126, 139
105, 126, 122, 89
123, 124, 133, 105
129, 113, 110, 134
124, 135, 131, 124
118, 111, 118, 125
134, 122, 138, 123
108, 110, 121, 138
121, 131, 144, 124
157, 123, 146, 115
117, 134, 128, 145
123, 131, 125, 107
119, 122, 115, 120
135, 112, 137, 118
120, 133, 141, 120
134, 146, 129, 152
140, 127, 134, 119
134, 160, 110, 113
124, 121, 123, 128
128, 133, 157, 119
127, 125, 115, 150
122, 127, 129, 130
134, 132, 114, 141
132, 129, 145, 126
116, 124, 144, 159
111, 109, 111, 127
129, 143, 107, 118
127, 127, 134, 124
106, 128, 140, 119
139, 134, 139, 108
127, 135, 128, 130
140, 138, 114, 135
124, 138, 126, 126
131, 114, 125, 151
137, 123, 131, 133
117, 137, 136, 149
129, 130, 147, 142
158, 171, 159, 169
609, 735, 753, 908
1153, 1205, 1178, 1159
407, 440, 369, 369
165, 133, 151, 148
152, 134, 151, 146
149, 124, 147, 163
131, 140, 117, 138
122, 121, 133, 154
131, 147, 137, 146
135, 118, 124, 135
158, 144, 155, 126
130, 126, 151, 147
102, 129, 140, 133
140, 136, 126, 132
123, 122, 127, 160
142, 122, 125, 127
149, 130, 130, 135
131, 154, 132, 113
126, 106, 132, 110
119, 157, 144, 149
167
*END

*EOF