File: XRD-20251211/2-2_2-Theta_Omega.asc
*TYPE		=  Raw
*CLASS		=  ASCII CLASS
*SAMPLE		=
*COMMENT	=
*FNAME		=  2-2_2-Theta_Omega.asc
*DATE		=  11-Dec-25 16:05

*GROUP_COUNT	=  1
*GONIO		=  SmartLab(In-plane), 0.000000
*ATTACHMENT	=  Z-Phi Stage
*ASC		=  0, 0, 0.000000, 0.000000
*I_MONOCHRO	=  Soller_slit_5.0deg, 0.000000
*FILTER		=  None
*C_MONOCHRO	=  None, 0.000000
*SLIT_NAME	=  0, Incident slit
*SLIT_NAME	=  1, Receiving slit # 1
*SLIT_NAME	=  2, Receiving slit # 2
*COUNTER	=  SC-70, 0
*POS_FORMAT	=  0
*SCAN_AXIS	=  2Theta/Omega
*MEAS_MODE	=  Continuous Scanning
*TARGET		=  29
*XRAY_CHAR	=  K-ALPHA
*WAVE_LENGTH1	=  1.54059
*WAVE_LENGTH2	=  1.54441
*THICKNESS	=  0, 0.000000
*MU		=  0, 0.000000
*SCAN_MODE	=  2Theta/Omega
*SPEED_DIM	=  sec./step
*XUNIT		=  deg.
*YUNIT		=  counts
*SCALE_MODE	=  1
*REP_COUNT	=  0
*SE_COUNT	=  0
*STD_MATERIAL	=  Unknown, Unknown, 0.000000, 0.000000, 0.000000, 0.000000, 0.000000, 0.000000
*LATT_CONS	=  0, Unknown, Unknown, 0.000000, 0.000000, 0.000000, 0.000000, 0.000000, 0.000000
*SEC_COUNT	=  1
*TSPEC_SIZE	=  0
*EXTRA_SIZE	=  0
*MEMO		=

*BEGIN
*GROUP		=  0
*START		=  20
*STOP		=  80
*STEP		=  0.01
*OFFSET		=  0.000000
*SPEED		=  0.05
*SLIT_SPEC	=  0, 1.000mm, 1, 0.000000
*SLIT_SPEC	=  1, 1.000mm, 1, 0.000000
*SLIT_SPEC	=  2, 1.000mm, 1, 0.000000
*KV		=  40
*MA		=  100
*LOW		=  0.000000
*HIGH		=  0.000000
*CTEMPER	=  0, 0.000000
*CTEMPER	=  1, 0.000000
*CTEMPER	=  2, 0.000000
*PAREX		=  0, 0.000000
*PAREX		=  1, 0.000000
*PAREX		=  2, 0.000000
*PAREX		=  3, 0.000000
*PAREX		=  4, 0.000000
*PAREX		=  5, 0.000000
*PAREX		=  6, 0.000000
*PAREX		=  7, 0.000000
*PAREX		=  8, 0.000000
*PAREX		=  9, 0.000000
*PAREX		=  10, 0.000000
*PAREX		=  11, 0.000000
*PAREX		=  12, 0.000000
*PAREX		=  13, 0.000000
*PAREX		=  14, 0.000000
*PAREX		=  15, 0.000000
*FULL_SCALE	=  760952
*INDEX		=  0, 0, 0
*COUNT		=  6001
101, 107, 79, 98
117, 108, 111, 121
116, 121, 112, 129
120, 112, 110, 115
114, 101, 92, 134
106, 126, 104, 94
101, 118, 126, 122
125, 80, 110, 118
98, 104, 118, 88
106, 103, 115, 101
109, 108, 91, 110
114, 129, 120, 129
103, 104, 120, 92
112, 111, 111, 101
110, 112, 106, 93
108, 113, 111, 131
111, 122, 119, 110
106, 123, 102, 109
103, 118, 105, 88
110, 99, 124, 123
104, 97, 100, 107
104, 106, 116, 111
112, 87, 97, 108
103, 104, 91, 104
123, 95, 120, 109
96, 85, 111, 103
104, 108, 105, 121
90, 109, 112, 114
102, 122, 107, 102
115, 113, 103, 104
95, 105, 110, 115
96, 115, 99, 100
106, 110, 105, 113
114, 107, 115, 100
109, 125, 96, 97
137, 95, 111, 112
108, 134, 110, 113
103, 106, 102, 114
120, 110, 107, 118
114, 111, 120, 104
107, 121, 107, 116
110, 126, 106, 112
111, 122, 110, 117
111, 108, 98, 103
100, 113, 118, 109
125, 109, 119, 84
105, 117, 94, 115
127, 114, 108, 103
120, 107, 117, 115
85, 99, 99, 92
109, 119, 112, 110
115, 110, 105, 117
97, 107, 102, 114
113, 107, 117, 94
114, 102, 96, 135
115, 106, 113, 123
108, 109, 111, 107
116, 104, 120, 108
104, 106, 128, 109
125, 129, 113, 132
115, 112, 101, 122
96, 123, 113, 105
119, 110, 111, 111
95, 125, 112, 118
115, 109, 117, 117
101, 111, 121, 132
115, 123, 123, 140
114, 105, 98, 115
126, 115, 124, 116
121, 111, 120, 129
111, 109, 111, 116
105, 122, 123, 125
121, 120, 116, 130
237, 255, 289, 306
134, 106, 123, 116
115, 113, 132, 113
134, 135, 105, 122
129, 122, 135, 127
126, 138, 135, 113
120, 125, 133, 131
121, 144, 145, 101
148, 151, 162, 152
157, 158, 148, 143
545, 447, 429, 351
193, 205, 194, 214
151, 165, 187, 166
154, 184, 195, 190
187, 149, 203, 212
188, 186, 199, 194
229, 210, 253, 227
1154, 1098, 1107, 1202
10821, 13547, 14407, 13512
266, 269, 268, 260
212, 189, 182, 173
142, 165, 177, 176
141, 133, 139, 157
168, 143, 158, 134
153, 147, 173, 169
155, 182, 191, 174
549, 608, 672, 830
5275, 5248, 5009, 5054
980, 780, 603, 548
233, 270, 221, 238
149, 157, 150, 146
147, 110, 145, 125
135, 123, 119, 142
116, 130, 111, 139
138, 139, 141, 124
122, 110, 113, 145
106, 121, 123, 135
123, 110, 106, 140
131, 115, 125, 120
131, 113, 123, 133
153, 124, 122, 133
119, 118, 120, 118
113, 129, 115, 136
116, 136, 110, 128
125, 119, 121, 113
113, 134, 142, 120
115, 100, 133, 117
95, 126, 102, 130
128, 143, 116, 117
136, 105, 136, 121
108, 124, 119, 101
121, 130, 121, 119
129, 124, 133, 143
156, 116, 121, 114
130, 126, 133, 135
116, 127, 120, 137
114, 102, 128, 110
134, 107, 116, 124
123, 144, 133, 121
128, 141, 110, 139
128, 120, 132, 129
121, 129, 108, 112
114, 108, 107, 115
130, 121, 138, 118
123, 119, 106, 157
125, 117, 112, 136
126, 118, 113, 150
138, 122, 124, 117
128, 121, 123, 119
138, 103, 133, 120
110, 116, 124, 112
124, 129, 134, 120
116, 129, 129, 118
146, 120, 124, 122
108, 126, 131, 124
112, 129, 113, 129
144, 129, 127, 123
116, 135, 129, 118
122, 106, 138, 122
126, 136, 120, 125
127, 119, 140, 127
106, 99, 118, 106
120, 133, 116, 101
124, 139, 122, 127
152, 149, 108, 133
130, 129, 127, 153
158, 159, 135, 114
120, 132, 143, 134
140, 126, 124, 128
122, 129, 121, 133
116, 138, 118, 134
128, 119, 125, 114
127, 142, 115, 133
117, 131, 110, 130
128, 116, 118, 121
125, 144, 114, 115
120, 104, 108, 125
135, 145, 127, 139
108, 113, 123, 108
137, 131, 136, 126
107, 106, 132, 112
115, 126, 123, 122
118, 92, 114, 112
106, 140, 126, 100
124, 131, 120, 126
132, 142, 116, 116
121, 129, 111, 122
102, 138, 128, 119
129, 138, 119, 129
130, 114, 117, 135
128, 117, 126, 122
119, 150, 127, 133
123, 139, 153, 130
148, 143, 150, 138
145, 132, 133, 120
108, 134, 115, 118
103, 125, 103, 148
119, 132, 145, 135
122, 116, 122, 106
153, 120, 118, 133
127, 104, 114, 112
127, 130, 132, 126
128, 132, 132, 131
107, 127, 125, 123
111, 137, 136, 140
118, 126, 132, 121
133, 128, 130, 113
110, 107, 132, 109
134, 125, 120, 117
126, 124, 125, 141
134, 119, 122, 129
160, 113, 131, 141
121, 116, 135, 123
104, 121, 126, 112
109, 119, 126, 121
125, 97, 99, 112
125, 132, 131, 121
111, 124, 106, 112
115, 126, 116, 130
130, 125, 137, 122
121, 112, 125, 121
104, 135, 122, 116
147, 128, 148, 141
144, 126, 147, 142
140, 132, 125, 111
144, 118, 127, 156
151, 112, 129, 145
125, 117, 135, 122
121, 132, 122, 143
151, 150, 141, 130
126, 126, 124, 132
137, 130, 131, 137
151, 135, 142, 129
141, 129, 123, 124
137, 148, 132, 156
131, 142, 137, 129
174, 180, 165, 162
670, 708, 742, 881
1504, 1486, 1508, 1425
650, 621, 574, 542
152, 136, 135, 153
121, 155, 123, 135
131, 120, 124, 131
127, 123, 117, 132
151, 126, 125, 123
146, 118, 151, 119
131, 116, 138, 139
130, 117, 143, 137
135, 139, 143, 128
146, 128, 123, 125
122, 125, 134, 108
129, 129, 135, 126
126, 135, 152, 122
123, 129, 129, 119
140, 139, 122, 133
148, 129, 131, 116
138, 139, 165, 146
410
*END

*EOF