File: XRD-20251211/3-1_2-Theta_Omega.asc
*TYPE		=  Raw
*CLASS		=  ASCII CLASS
*SAMPLE		=
*COMMENT	=
*FNAME		=  3-1_2-Theta_Omega.asc
*DATE		=  11-Dec-25 16:12

*GROUP_COUNT	=  1
*GONIO		=  SmartLab(In-plane), 0.000000
*ATTACHMENT	=  Z-Phi Stage
*ASC		=  0, 0, 0.000000, 0.000000
*I_MONOCHRO	=  Soller_slit_5.0deg, 0.000000
*FILTER		=  None
*C_MONOCHRO	=  None, 0.000000
*SLIT_NAME	=  0, Incident slit
*SLIT_NAME	=  1, Receiving slit # 1
*SLIT_NAME	=  2, Receiving slit # 2
*COUNTER	=  SC-70, 0
*POS_FORMAT	=  0
*SCAN_AXIS	=  2Theta/Omega
*MEAS_MODE	=  Continuous Scanning
*TARGET		=  29
*XRAY_CHAR	=  K-ALPHA
*WAVE_LENGTH1	=  1.54059
*WAVE_LENGTH2	=  1.54441
*THICKNESS	=  0, 0.000000
*MU		=  0, 0.000000
*SCAN_MODE	=  2Theta/Omega
*SPEED_DIM	=  sec./step
*XUNIT		=  deg.
*YUNIT		=  counts
*SCALE_MODE	=  1
*REP_COUNT	=  0
*SE_COUNT	=  0
*STD_MATERIAL	=  Unknown, Unknown, 0.000000, 0.000000, 0.000000, 0.000000, 0.000000, 0.000000
*LATT_CONS	=  0, Unknown, Unknown, 0.000000, 0.000000, 0.000000, 0.000000, 0.000000, 0.000000
*SEC_COUNT	=  1
*TSPEC_SIZE	=  0
*EXTRA_SIZE	=  0
*MEMO		=

*BEGIN
*GROUP		=  0
*START		=  20
*STOP		=  80
*STEP		=  0.01
*OFFSET		=  0.000000
*SPEED		=  0.05
*SLIT_SPEC	=  0, 1.000mm, 1, 0.000000
*SLIT_SPEC	=  1, 1.000mm, 1, 0.000000
*SLIT_SPEC	=  2, 1.000mm, 1, 0.000000
*KV		=  40
*MA		=  100
*LOW		=  0.000000
*HIGH		=  0.000000
*CTEMPER	=  0, 0.000000
*CTEMPER	=  1, 0.000000
*CTEMPER	=  2, 0.000000
*PAREX		=  0, 0.000000
*PAREX		=  1, 0.000000
*PAREX		=  2, 0.000000
*PAREX		=  3, 0.000000
*PAREX		=  4, 0.000000
*PAREX		=  5, 0.000000
*PAREX		=  6, 0.000000
*PAREX		=  7, 0.000000
*PAREX		=  8, 0.000000
*PAREX		=  9, 0.000000
*PAREX		=  10, 0.000000
*PAREX		=  11, 0.000000
*PAREX		=  12, 0.000000
*PAREX		=  13, 0.000000
*PAREX		=  14, 0.000000
*PAREX		=  15, 0.000000
*FULL_SCALE	=  190440
*INDEX		=  0, 0, 0
*COUNT		=  6001
95, 96, 87, 95
107, 98, 118, 99
99, 98, 87, 93
88, 91, 92, 112
99, 89, 88, 84
93, 89, 84, 102
113, 73, 84, 86
98, 96, 90, 87
83, 90, 96, 97
89, 97, 81, 77
111, 97, 87, 107
104, 79, 106, 86
99, 103, 95, 114
99, 96, 92, 101
105, 83, 102, 99
107, 99, 119, 98
81, 101, 87, 91
92, 95, 92, 103
84, 93, 102, 108
94, 90, 80, 107
116, 104, 98, 111
86, 106, 107, 118
87, 78, 104, 93
102, 87, 93, 105
89, 77, 97, 93
91, 76, 84, 104
104, 107, 100, 96
75, 96, 90, 87
118, 99, 88, 93
72, 102, 82, 89
97, 105, 108, 100
89, 90, 95, 94
96, 98, 86, 95
88, 87, 102, 105
97, 116, 93, 89
97, 115, 93, 93
110, 107, 103, 85
103, 105, 89, 111
87, 104, 101, 91
109, 100, 110, 114
123, 107, 88, 111
96, 87, 111, 106
110, 78, 92, 101
104, 87, 82, 105
88, 95, 96, 97
99, 96, 116, 101
98, 87, 102, 89
111, 94, 94, 95
95, 92, 94, 102
112, 91, 107, 87
99, 102, 127, 99
110, 104, 99, 103
112, 99, 108, 106
109, 94, 96, 99
111, 93, 116, 92
97, 110, 104, 88
103, 98, 115, 91
90, 110, 120, 99
102, 113, 122, 100
88, 94, 115, 102
112, 101, 94, 101
110, 96, 93, 106
110, 97, 105, 97
111, 119, 121, 108
119, 129, 146, 141
229, 254, 205, 196
152, 128, 124, 116
121, 115, 108, 107
96, 105, 103, 102
124, 116, 117, 97
86, 123, 105, 91
108, 107, 102, 124
128, 101, 126, 123
97, 110, 130, 83
97, 104, 116, 87
104, 94, 101, 118
105, 110, 95, 99
116, 116, 138, 105
91, 105, 109, 107
103, 120, 108, 105
120, 107, 120, 113
123, 143, 146, 144
110, 122, 138, 93
95, 134, 103, 96
104, 117, 112, 105
111, 96, 107, 99
130, 101, 122, 114
126, 99, 116, 99
77, 95, 120, 130
105, 103, 110, 123
125, 120, 131, 107
122, 118, 113, 132
185, 174, 198, 186
155, 124, 129, 151
141, 130, 125, 144
129, 127, 129, 150
121, 161, 157, 146
157, 147, 158, 148
174, 156, 158, 174
497, 567, 668, 779
7695, 7800, 7935, 7899
590, 537, 504, 430
208, 234, 221, 214
140, 166, 162, 128
122, 125, 120, 113
113, 135, 130, 141
117, 114, 107, 122
124, 89, 113, 102
119, 120, 116, 121
102, 101, 105, 95
122, 90, 127, 110
96, 103, 111, 106
115, 94, 108, 107
140, 118, 114, 93
115, 106, 87, 103
122, 114, 92, 108
115, 107, 116, 99
137, 95, 126, 129
121, 105, 121, 112
95, 122, 110, 111
101, 96, 97, 121
108, 114, 102, 125
106, 116, 121, 110
136, 108, 122, 115
91, 125, 136, 108
118, 118, 107, 108
105, 116, 119, 110
120, 123, 112, 98
90, 120, 122, 97
106, 96, 116, 122
102, 136, 116, 115
93, 116, 123, 110
111, 106, 106, 110
126, 111, 117, 123
121, 105, 105, 106
133, 111, 102, 118
109, 116, 114, 118
100, 127, 111, 104
117, 129, 107, 102
118, 101, 105, 116
115, 107, 119, 108
116, 116, 122, 98
114, 109, 96, 117
108, 92, 117, 110
118, 122, 131, 94
116, 119, 109, 112
91, 104, 115, 119
122, 105, 102, 103
120, 101, 107, 100
109, 121, 110, 112
112, 104, 120, 116
114, 110, 96, 120
120, 115, 109, 108
103, 118, 104, 104
105, 129, 96, 112
102, 119, 101, 116
113, 112, 114, 108
102, 114, 106, 113
105, 107, 86, 122
109, 99, 137, 112
118, 131, 124, 98
105, 107, 101, 112
114, 113, 113, 127
113, 119, 124, 97
110, 106, 106, 115
132, 113, 101, 113
114, 123, 103, 125
144, 123, 112, 104
118, 106, 108, 99
117, 108, 123, 119
115, 98, 105, 107
104, 104, 114, 89
115, 98, 124, 131
93, 98, 94, 112
111, 121, 115, 108
99, 121, 121, 101
112, 111, 113, 117
125, 116, 107, 110
116, 116, 135, 104
88, 85, 124, 113
102, 110, 121, 122
120, 116, 116, 110
123, 114, 115, 107
117, 120, 117, 134
132, 118, 119, 114
121, 124, 110, 134
112, 139, 141, 122
138, 105, 114, 92
99, 112, 105, 112
109, 102, 108, 102
97, 110, 124, 105
125, 117, 111, 106
95, 104, 123, 101
131, 108, 103, 133
107, 115, 116, 117
126, 104, 107, 109
118, 153, 124, 130
123, 119, 108, 115
101, 116, 121, 126
99, 117, 94, 115
114, 124, 91, 102
111, 121, 100, 99
101, 101, 101, 96
105, 125, 98, 127
108, 108, 120, 109
102, 107, 112, 121
124, 108, 114, 94
108, 114, 114, 126
107, 113, 132, 104
100, 112, 116, 97
105, 116, 106, 103
100, 99, 131, 126
106, 92, 113, 115
99, 117, 122, 114
128, 123, 110, 122
128, 134, 116, 119
122, 123, 110, 113
111, 120, 116, 111
109, 126, 109, 112
112, 124, 126, 125
113, 117, 108, 108
111, 132, 112, 125
116, 113, 134, 111
123, 103, 121, 106
129, 132, 114, 135
120, 142, 128, 112
140, 122, 110, 135
128, 111, 135, 137
154, 143, 137, 173
187, 176, 208, 188
841, 974, 1051, 1160
1699, 1575, 1577, 1447
666, 549, 501, 422
159, 154, 163, 158
127, 133, 121, 131
126, 134, 124, 116
131, 123, 117, 115
112, 136, 110, 127
132, 124, 140, 110
129, 135, 126, 135
126, 136, 132, 123
122, 134, 120, 126
108, 124, 124, 100
119, 111, 118, 104
120, 124, 131, 120
108, 98, 119, 119
117, 137, 123, 118
120, 131, 122, 120
115, 111, 127, 86
119, 101, 136, 112
118
*END

*EOF