File: XRD-20251211/3-2_2-Theta_Omega.asc
*TYPE		=  Raw
*CLASS		=  ASCII CLASS
*SAMPLE		=
*COMMENT	=
*FNAME		=  3-2_2-Theta_Omega.asc
*DATE		=  11-Dec-25 16:20

*GROUP_COUNT	=  1
*GONIO		=  SmartLab(In-plane), 0.000000
*ATTACHMENT	=  Z-Phi Stage
*ASC		=  0, 0, 0.000000, 0.000000
*I_MONOCHRO	=  Soller_slit_5.0deg, 0.000000
*FILTER		=  None
*C_MONOCHRO	=  None, 0.000000
*SLIT_NAME	=  0, Incident slit
*SLIT_NAME	=  1, Receiving slit # 1
*SLIT_NAME	=  2, Receiving slit # 2
*COUNTER	=  SC-70, 0
*POS_FORMAT	=  0
*SCAN_AXIS	=  2Theta/Omega
*MEAS_MODE	=  Continuous Scanning
*TARGET		=  29
*XRAY_CHAR	=  K-ALPHA
*WAVE_LENGTH1	=  1.54059
*WAVE_LENGTH2	=  1.54441
*THICKNESS	=  0, 0.000000
*MU		=  0, 0.000000
*SCAN_MODE	=  2Theta/Omega
*SPEED_DIM	=  sec./step
*XUNIT		=  deg.
*YUNIT		=  counts
*SCALE_MODE	=  1
*REP_COUNT	=  0
*SE_COUNT	=  0
*STD_MATERIAL	=  Unknown, Unknown, 0.000000, 0.000000, 0.000000, 0.000000, 0.000000, 0.000000
*LATT_CONS	=  0, Unknown, Unknown, 0.000000, 0.000000, 0.000000, 0.000000, 0.000000, 0.000000
*SEC_COUNT	=  1
*TSPEC_SIZE	=  0
*EXTRA_SIZE	=  0
*MEMO		=

*BEGIN
*GROUP		=  0
*START		=  20
*STOP		=  80
*STEP		=  0.01
*OFFSET		=  0.000000
*SPEED		=  0.05
*SLIT_SPEC	=  0, 1.000mm, 1, 0.000000
*SLIT_SPEC	=  1, 1.000mm, 1, 0.000000
*SLIT_SPEC	=  2, 1.000mm, 1, 0.000000
*KV		=  40
*MA		=  100
*LOW		=  0.000000
*HIGH		=  0.000000
*CTEMPER	=  0, 0.000000
*CTEMPER	=  1, 0.000000
*CTEMPER	=  2, 0.000000
*PAREX		=  0, 0.000000
*PAREX		=  1, 0.000000
*PAREX		=  2, 0.000000
*PAREX		=  3, 0.000000
*PAREX		=  4, 0.000000
*PAREX		=  5, 0.000000
*PAREX		=  6, 0.000000
*PAREX		=  7, 0.000000
*PAREX		=  8, 0.000000
*PAREX		=  9, 0.000000
*PAREX		=  10, 0.000000
*PAREX		=  11, 0.000000
*PAREX		=  12, 0.000000
*PAREX		=  13, 0.000000
*PAREX		=  14, 0.000000
*PAREX		=  15, 0.000000
*FULL_SCALE	=  88992
*INDEX		=  0, 0, 0
*COUNT		=  6001
111, 106, 112, 108
114, 117, 105, 97
116, 107, 96, 106
113, 114, 91, 102
100, 105, 112, 120
101, 111, 95, 108
104, 101, 90, 98
96, 108, 116, 112
105, 108, 94, 108
103, 98, 108, 107
111, 116, 121, 105
127, 84, 104, 101
101, 106, 111, 114
107, 113, 108, 101
119, 115, 101, 113
117, 111, 121, 97
109, 117, 100, 120
103, 94, 117, 120
113, 116, 99, 90
98, 124, 101, 97
116, 98, 104, 139
113, 114, 98, 110
123, 89, 111, 105
92, 102, 109, 107
83, 96, 98, 116
109, 108, 113, 115
110, 98, 103, 114
101, 88, 118, 111
111, 106, 128, 99
119, 95, 104, 104
115, 112, 110, 103
109, 123, 97, 103
110, 93, 111, 104
106, 107, 130, 98
97, 114, 117, 126
104, 97, 114, 106
117, 119, 106, 115
115, 105, 113, 108
113, 105, 105, 124
115, 119, 121, 117
116, 117, 115, 110
108, 124, 103, 100
108, 101, 96, 114
91, 96, 94, 128
93, 113, 111, 109
129, 113, 110, 110
108, 94, 111, 112
123, 101, 122, 120
116, 119, 115, 121
116, 94, 101, 104
102, 126, 94, 115
117, 107, 120, 123
108, 117, 116, 118
100, 97, 116, 130
109, 116, 99, 100
118, 114, 106, 126
109, 118, 110, 105
97, 108, 131, 120
115, 93, 119, 96
124, 112, 93, 110
124, 113, 89, 121
98, 113, 125, 113
119, 122, 105, 123
109, 111, 117, 90
107, 128, 116, 127
131, 105, 110, 110
97, 125, 112, 115
130, 103, 118, 115
107, 112, 137, 121
119, 108, 112, 120
114, 141, 100, 112
119, 107, 101, 145
135, 105, 98, 119
106, 122, 109, 115
119, 123, 115, 133
129, 95, 98, 122
106, 123, 124, 91
116, 111, 111, 110
115, 130, 102, 128
144, 132, 114, 107
97, 113, 98, 125
143, 128, 106, 114
133, 113, 109, 118
124, 107, 123, 137
119, 128, 132, 111
118, 110, 110, 111
123, 114, 119, 118
119, 102, 132, 127
125, 100, 126, 127
129, 103, 130, 122
119, 110, 133, 133
117, 128, 125, 124
159, 148, 152, 136
119, 140, 139, 122
142, 138, 147, 125
134, 147, 112, 143
137, 121, 125, 154
132, 116, 141, 155
181, 168, 162, 169
401, 529, 637, 782
3679, 3525, 3446, 3411
609, 527, 484, 437
231, 242, 217, 196
145, 146, 151, 159
131, 149, 112, 137
126, 127, 151, 132
126, 134, 140, 120
130, 123, 125, 109
119, 117, 115, 129
133, 140, 146, 119
122, 137, 121, 132
142, 150, 156, 156
205, 136, 164, 149
245, 248, 223, 232
276, 267, 285, 295
200, 204, 222, 194
166, 161, 155, 184
136, 140, 156, 157
115, 133, 131, 132
117, 121, 117, 137
141, 135, 104, 129
143, 110, 127, 142
116, 104, 132, 125
117, 136, 119, 123
119, 110, 126, 119
125, 141, 114, 133
115, 120, 105, 131
124, 113, 127, 115
114, 126, 133, 113
134, 120, 125, 92
137, 107, 101, 104
111, 118, 109, 114
138, 121, 118, 131
102, 119, 119, 104
119, 120, 145, 127
123, 136, 106, 112
128, 122, 137, 130
141, 118, 135, 128
132, 115, 127, 118
122, 117, 124, 109
106, 130, 96, 122
127, 110, 126, 111
118, 116, 142, 118
126, 116, 137, 120
106, 135, 112, 131
135, 118, 116, 112
120, 131, 122, 125
137, 133, 113, 113
123, 125, 110, 120
123, 128, 125, 119
122, 113, 120, 122
104, 119, 126, 143
123, 120, 123, 108
118, 138, 105, 129
118, 138, 110, 136
110, 124, 114, 125
98, 136, 121, 121
128, 131, 140, 120
133, 127, 143, 110
93, 125, 121, 114
125, 133, 134, 108
122, 109, 126, 134
101, 115, 119, 125
105, 122, 106, 125
124, 127, 115, 114
127, 108, 124, 103
133, 118, 128, 125
118, 117, 128, 98
131, 125, 129, 129
127, 103, 105, 110
130, 109, 151, 112
128, 113, 137, 110
116, 128, 114, 105
116, 121, 127, 104
111, 132, 130, 107
97, 113, 126, 122
132, 121, 125, 110
127, 121, 128, 106
116, 114, 120, 112
102, 110, 123, 136
120, 120, 113, 135
143, 121, 126, 128
124, 110, 120, 123
130, 107, 126, 133
113, 127, 126, 118
143, 124, 152, 122
145, 118, 118, 122
132, 153, 112, 120
128, 104, 125, 109
121, 125, 104, 131
124, 113, 122, 139
114, 136, 123, 122
137, 125, 117, 108
111, 127, 126, 92
119, 126, 120, 126
111, 137, 111, 108
132, 116, 128, 130
115, 114, 108, 131
112, 128, 107, 115
115, 115, 117, 143
116, 112, 109, 124
113, 133, 130, 113
116, 109, 122, 111
135, 115, 124, 119
130, 102, 129, 118
117, 131, 118, 108
100, 120, 138, 111
124, 123, 120, 123
140, 108, 127, 117
121, 122, 114, 107
129, 114, 126, 122
106, 126, 135, 117
140, 131, 109, 121
114, 116, 101, 130
126, 135, 129, 117
105, 116, 131, 123
119, 128, 126, 96
133, 118, 112, 118
111, 120, 112, 139
141, 120, 125, 132
123, 109, 94, 107
129, 124, 107, 134
111, 133, 134, 125
108, 111, 111, 109
134, 140, 145, 112
120, 118, 130, 125
126, 120, 144, 116
114, 132, 122, 130
152, 134, 126, 127
147, 158, 141, 133
315, 354, 334, 351
667, 639, 604, 578
293, 282, 271, 254
118, 112, 146, 129
131, 123, 138, 123
94, 141, 130, 125
119, 120, 140, 144
126, 112, 102, 118
109, 143, 121, 115
137, 124, 109, 126
129, 128, 122, 112
119, 129, 148, 134
140, 117, 128, 111
125, 127, 125, 139
108, 129, 124, 128
138, 125, 106, 133
124, 130, 138, 111
120, 134, 112, 130
129, 123, 116, 132
120, 147, 114, 125
129
*END

*EOF