File: XRD-20251211/4-1_2-Theta_Omega.asc
*TYPE		=  Raw
*CLASS		=  ASCII CLASS
*SAMPLE		=
*COMMENT	=
*FNAME		=  4-1_2-Theta_Omega.asc
*DATE		=  11-Dec-25 16:27

*GROUP_COUNT	=  1
*GONIO		=  SmartLab(In-plane), 0.000000
*ATTACHMENT	=  Z-Phi Stage
*ASC		=  0, 0, 0.000000, 0.000000
*I_MONOCHRO	=  Soller_slit_5.0deg, 0.000000
*FILTER		=  None
*C_MONOCHRO	=  None, 0.000000
*SLIT_NAME	=  0, Incident slit
*SLIT_NAME	=  1, Receiving slit # 1
*SLIT_NAME	=  2, Receiving slit # 2
*COUNTER	=  SC-70, 0
*POS_FORMAT	=  0
*SCAN_AXIS	=  2Theta/Omega
*MEAS_MODE	=  Continuous Scanning
*TARGET		=  29
*XRAY_CHAR	=  K-ALPHA
*WAVE_LENGTH1	=  1.54059
*WAVE_LENGTH2	=  1.54441
*THICKNESS	=  0, 0.000000
*MU		=  0, 0.000000
*SCAN_MODE	=  2Theta/Omega
*SPEED_DIM	=  sec./step
*XUNIT		=  deg.
*YUNIT		=  counts
*SCALE_MODE	=  1
*REP_COUNT	=  0
*SE_COUNT	=  0
*STD_MATERIAL	=  Unknown, Unknown, 0.000000, 0.000000, 0.000000, 0.000000, 0.000000, 0.000000
*LATT_CONS	=  0, Unknown, Unknown, 0.000000, 0.000000, 0.000000, 0.000000, 0.000000, 0.000000
*SEC_COUNT	=  1
*TSPEC_SIZE	=  0
*EXTRA_SIZE	=  0
*MEMO		=

*BEGIN
*GROUP		=  0
*START		=  20
*STOP		=  80
*STEP		=  0.01
*OFFSET		=  0.000000
*SPEED		=  0.05
*SLIT_SPEC	=  0, 1.000mm, 1, 0.000000
*SLIT_SPEC	=  1, 1.000mm, 1, 0.000000
*SLIT_SPEC	=  2, 1.000mm, 1, 0.000000
*KV		=  40
*MA		=  100
*LOW		=  0.000000
*HIGH		=  0.000000
*CTEMPER	=  0, 0.000000
*CTEMPER	=  1, 0.000000
*CTEMPER	=  2, 0.000000
*PAREX		=  0, 0.000000
*PAREX		=  1, 0.000000
*PAREX		=  2, 0.000000
*PAREX		=  3, 0.000000
*PAREX		=  4, 0.000000
*PAREX		=  5, 0.000000
*PAREX		=  6, 0.000000
*PAREX		=  7, 0.000000
*PAREX		=  8, 0.000000
*PAREX		=  9, 0.000000
*PAREX		=  10, 0.000000
*PAREX		=  11, 0.000000
*PAREX		=  12, 0.000000
*PAREX		=  13, 0.000000
*PAREX		=  14, 0.000000
*PAREX		=  15, 0.000000
*FULL_SCALE	=  9792
*INDEX		=  0, 0, 0
*COUNT		=  6001
147, 111, 133, 136
137, 121, 145, 120
132, 128, 139, 145
143, 122, 147, 125
126, 143, 142, 133
129, 140, 134, 145
147, 129, 124, 116
111, 136, 130, 137
138, 136, 140, 127
122, 136, 132, 138
102, 134, 134, 149
148, 136, 138, 157
118, 126, 133, 149
136, 114, 140, 156
135, 133, 129, 144
134, 122, 146, 151
118, 138, 158, 132
124, 140, 138, 130
139, 154, 129, 108
150, 141, 137, 124
137, 146, 139, 160
138, 140, 128, 129
133, 118, 129, 139
140, 143, 133, 135
141, 137, 141, 129
138, 126, 130, 123
139, 136, 140, 131
136, 124, 146, 142
124, 127, 126, 137
122, 134, 140, 122
107, 141, 157, 125
147, 143, 142, 130
120, 129, 157, 155
116, 159, 134, 140
147, 138, 116, 142
136, 125, 130, 122
129, 142, 154, 148
111, 133, 132, 122
117, 120, 138, 143
142, 119, 136, 128
128, 116, 130, 131
144, 156, 130, 138
138, 127, 133, 171
144, 118, 136, 153
146, 128, 132, 128
147, 141, 135, 124
118, 126, 137, 135
142, 131, 128, 142
125, 116, 147, 126
128, 136, 122, 135
120, 150, 124, 130
147, 151, 123, 127
158, 148, 137, 134
120, 133, 141, 140
121, 123, 134, 141
138, 128, 137, 131
144, 114, 163, 132
153, 122, 133, 140
143, 128, 136, 121
114, 131, 137, 135
133, 166, 142, 121
142, 127, 128, 168
141, 158, 136, 152
151, 128, 153, 118
124, 164, 147, 144
128, 162, 119, 121
132, 147, 135, 132
144, 162, 122, 126
140, 127, 135, 134
144, 127, 148, 150
139, 147, 125, 136
129, 117, 143, 147
135, 147, 139, 154
142, 161, 115, 143
156, 152, 137, 151
126, 123, 152, 145
140, 134, 167, 161
147, 137, 120, 133
141, 131, 148, 123
150, 153, 140, 125
143, 152, 123, 134
131, 142, 143, 142
142, 168, 148, 148
139, 147, 136, 159
127, 141, 136, 126
139, 163, 127, 146
141, 150, 119, 123
156, 171, 154, 142
133, 141, 128, 127
138, 150, 124, 132
162, 125, 154, 142
134, 151, 166, 143
141, 164, 150, 132
180, 148, 132, 159
150, 160, 140, 157
154, 157, 170, 138
153, 129, 151, 129
149, 157, 124, 155
157, 133, 153, 145
157, 156, 162, 138
184, 185, 184, 221
362, 334, 369, 389
261, 254, 278, 264
194, 199, 186, 145
144, 153, 153, 147
145, 161, 140, 154
149, 168, 142, 151
152, 159, 149, 143
160, 123, 144, 137
155, 147, 147, 158
119, 143, 165, 167
138, 140, 150, 139
152, 149, 142, 132
155, 148, 165, 153
142, 154, 130, 152
158, 146, 153, 135
151, 148, 142, 128
144, 157, 145, 154
152, 158, 153, 147
160, 170, 146, 172
154, 130, 145, 128
128, 153, 147, 133
173, 145, 150, 143
152, 163, 105, 139
151, 150, 163, 143
159, 152, 155, 142
164, 149, 122, 130
145, 167, 176, 131
153, 161, 138, 164
152, 152, 181, 138
145, 167, 147, 149
168, 153, 155, 141
182, 148, 139, 166
152, 152, 147, 134
153, 185, 163, 137
143, 154, 163, 151
140, 142, 164, 174
159, 154, 135, 151
187, 143, 143, 140
147, 140, 160, 152
159, 149, 160, 158
169, 131, 177, 169
145, 162, 163, 138
147, 147, 150, 160
154, 138, 136, 128
157, 143, 141, 161
144, 157, 149, 160
146, 140, 165, 153
152, 165, 166, 169
173, 133, 141, 154
169, 136, 146, 151
155, 161, 129, 153
154, 167, 147, 168
143, 145, 149, 139
128, 165, 168, 157
164, 177, 147, 163
158, 140, 149, 170
171, 144, 169, 154
179, 168, 166, 161
148, 154, 156, 146
133, 166, 156, 169
182, 155, 150, 169
157, 148, 170, 150
166, 162, 143, 141
159, 134, 150, 147
163, 145, 158, 147
153, 169, 140, 137
165, 150, 125, 178
165, 151, 144, 133
166, 167, 155, 177
172, 147, 168, 153
168, 172, 144, 159
163, 159, 150, 168
165, 165, 167, 149
160, 152, 142, 155
146, 163, 176, 169
170, 167, 158, 157
155, 155, 169, 160
168, 173, 184, 138
168, 171, 163, 157
149, 141, 155, 160
166, 151, 153, 151
151, 177, 162, 178
174, 171, 154, 193
174, 207, 185, 160
190, 182, 199, 196
171, 196, 177, 190
179, 173, 177, 182
177, 168, 154, 166
178, 160, 156, 150
158, 156, 149, 180
175, 167, 162, 171
145, 173, 146, 144
155, 155, 167, 132
140, 173, 153, 141
151, 163, 174, 170
184, 153, 160, 158
179, 151, 170, 181
168, 176, 182, 177
168, 176, 148, 186
164, 157, 157, 155
148, 184, 144, 158
150, 151, 139, 164
163, 153, 166, 176
198, 171, 164, 186
179, 166, 172, 177
173, 161, 164, 173
174, 159, 164, 150
168, 160, 166, 151
158, 162, 169, 186
169, 163, 177, 160
150, 166, 163, 157
169, 166, 175, 156
192, 150, 174, 164
165, 172, 179, 174
161, 157, 171, 169
175, 144, 168, 193
183, 167, 174, 159
192, 166, 185, 176
155, 164, 170, 161
170, 175, 186, 157
166, 182, 151, 168
175, 155, 155, 170
175, 168, 189, 167
177, 167, 181, 157
157, 165, 175, 163
172, 155, 162, 174
178, 171, 178, 148
146, 172, 167, 179
174, 171, 189, 163
151, 165, 171, 156
174, 153, 176, 179
188, 158, 180, 164
191, 173, 210, 185
156, 151, 157, 170
162, 200, 167, 164
174, 191, 169, 165
183, 170, 176, 181
167, 161, 165, 153
183, 185, 150, 167
171, 170, 190, 179
166, 149, 194, 196
162, 186, 190, 172
170, 190, 184, 174
147, 171, 182, 190
173, 151, 185, 167
199, 179, 159, 184
192, 170, 175, 209
181, 167, 158, 177
188, 159, 198, 187
162
*END

*EOF